#----------------------------------
# BOTDR
# DSTS: v.07.1
# Fri Oct 22 14:13:51 2021
#
# Channel No  = 0
# Partial   = 0
# Partial Start  = 0.00
# Partial End  = 3111.40
# Fibre Length    [m]   = 3111.40  0.00
# Fiber Delay    [m]   = 111.40
# Connection Point    [m]   = 191.49
# Rpt.period      [us]  = 65
# Pulse width     [ns]  = 10
# Frequency Start [MHz] = 10690.00
# Frequency End:  [MHz] = 10990.00
# Frequency Step: [MHz] = 5.00
# No.Averages:    [-]   = 12000
# Sampling Rate   [-]   = 0 (200.00MSs, spatial step = 0.50m)
# Input Range     [-]   = 2 (1V)
# Pulse Delay     [m]   = 100
# Post Pulse Data [m]   = 0
# Fiber Type      [-]   = CH4 Land
# Fiber  temperature [C] = 27.00
# Fiber  Bril Frequency  [MHz] = 10840.00
# Fiber  Strain Coefficient  [ue/MHz] = 18.9150
# Fiber Temperature Coefficient [C/MHz] = 0.9765
# Fiber Refractive Index = 1.4682
# Fiber Sigma = 0.2000
#
#----------------------------------
2D Baseline
6101

-111.4000   10840.0000
-110.9000   10840.0000
-110.4000   10840.0000
-109.9000   10840.0000
-109.4000   10840.0000
-108.9000   10840.0000
-108.4000   10840.0000
-107.9000   10840.0000
-107.4000   10840.0000
-106.9000   10840.0000
-106.4000   10840.0000
-105.9000   10840.0000
-105.4000   10840.0000
-104.9000   10840.0000
-104.4000   10840.0000
-103.9000   10840.0000
-103.4000   10840.0000
-102.9000   10840.0000
-102.4000   10840.0000
-101.9000   10840.0000
-101.4000   10840.0000
-100.9000   10840.0000
-100.4000   10840.0000
-99.9000   10840.0000
-99.4000   10840.0000
-98.9000   10840.0000
-98.4000   10840.0000
-97.9000   10840.0000
-97.4000   10840.0000
-96.9000   10840.0000
-96.4000   10840.0000
-95.9000   10840.0000
-95.4000   10840.0000
-94.9000   10840.0000
-94.4000   10840.0000
-93.9000   10840.0000
-93.4000   10840.0000
-92.9000   10840.0000
-92.4000   10840.0000
-91.9000   10840.0000
-91.4000   10840.0000
-90.9000   10840.0000
-90.4000   10840.0000
-89.9000   10840.0000
-89.4000   10840.0000
-88.9000   10840.0000
-88.4000   10840.0000
-87.9000   10840.0000
-87.4000   10840.0000
-86.9000   10840.0000
-86.4000   10840.0000
-85.9000   10840.0000
-85.4000   10840.0000
-84.9000   10840.0000
-84.4000   10840.0000
-83.9000   10840.0000
-83.4000   10840.0000
-82.9000   10840.0000
-82.4000   10840.0000
-81.9000   10840.0000
-81.4000   10840.0000
-80.9000   10840.0000
-80.4000   10840.0000
-79.9000   10840.0000
-79.4000   10840.0000
-78.9000   10840.0000
-78.4000   10840.0000
-77.9000   10840.0000
-77.4000   10840.0000
-76.9000   10840.0000
-76.4000   10840.0000
-75.9000   10840.0000
-75.4000   10840.0000
-74.9000   10840.0000
-74.4000   10840.0000
-73.9000   10840.0000
-73.4000   10840.0000
-72.9000   10840.0000
-72.4000   10840.0000
-71.9000   10840.0000
-71.4000   10840.0000
-70.9000   10840.0000
-70.4000   10840.0000
-69.9000   10840.0000
-69.4000   10840.0000
-68.9000   10840.0000
-68.4000   10840.0000
-67.9000   10840.0000
-67.4000   10840.0000
-66.9000   10840.0000
-66.4000   10840.0000
-65.9000   10840.0000
-65.4000   10840.0000
-64.9000   10840.0000
-64.4000   10840.0000
-63.9000   10840.0000
-63.4000   10840.0000
-62.9000   10840.0000
-62.4000   10840.0000
-61.9000   10840.0000
-61.4000   10840.0000
-60.9000   10840.0000
-60.4000   10840.0000
-59.9000   10840.0000
-59.4000   10840.0000
-58.9000   10840.0000
-58.4000   10840.0000
-57.9000   10840.0000
-57.4000   10840.0000
-56.9000   10840.0000
-56.4000   10840.0000
-55.9000   10840.0000
-55.4000   10840.0000
-54.9000   10840.0000
-54.4000   10840.0000
-53.9000   10840.0000
-53.4000   10840.0000
-52.9000   10840.0000
-52.4000   10840.0000
-51.9000   10840.0000
-51.4000   10840.0000
-50.9000   10840.0000
-50.4000   10840.0000
-49.9000   10840.0000
-49.4000   10840.0000
-48.9000   10840.0000
-48.4000   10840.0000
-47.9000   10840.0000
-47.4000   10840.0000
-46.9000   10840.0000
-46.4000   10840.0000
-45.9000   10840.0000
-45.4000   10840.0000
-44.9000   10840.0000
-44.4000   10840.0000
-43.9000   10840.0000
-43.4000   10840.0000
-42.9000   10840.0000
-42.4000   10840.0000
-41.9000   10840.0000
-41.4000   10840.0000
-40.9000   10840.0000
-40.4000   10840.0000
-39.9000   10840.0000
-39.4000   10840.0000
-38.9000   10840.0000
-38.4000   10840.0000
-37.9000   10840.0000
-37.4000   10840.0000
-36.9000   10840.0000
-36.4000   10840.0000
-35.9000   10840.0000
-35.4000   10840.0000
-34.9000   10840.0000
-34.4000   10840.0000
-33.9000   10840.0000
-33.4000   10840.0000
-32.9000   10840.0000
-32.4000   10840.0000
-31.9000   10840.0000
-31.4000   10840.0000
-30.9000   10840.0000
-30.4000   10840.0000
-29.9000   10840.0000
-29.4000   10840.0000
-28.9000   10840.0000
-28.4000   10840.0000
-27.9000   10840.0000
-27.4000   10840.0000
-26.9000   10840.0000
-26.4000   10840.0000
-25.9000   10840.0000
-25.4000   10840.0000
-24.9000   10840.0000
-24.4000   10840.0000
-23.9000   10840.0000
-23.4000   10840.0000
-22.9000   10840.0000
-22.4000   10840.0000
-21.9000   10840.0000
-21.4000   10840.0000
-20.9000   10840.0000
-20.4000   10840.0000
-19.9000   10840.0000
-19.4000   10840.0000
-18.9000   10840.0000
-18.4000   10840.0000
-17.9000   10840.0000
-17.4000   10840.0000
-16.9000   10840.0000
-16.4000   10840.0000
-15.9000   10840.0000
-15.4000   10840.0000
-14.9000   10840.0000
-14.4000   10840.0000
-13.9000   10840.0000
-13.4000   10840.0000
-12.9000   10840.0000
-12.4000   10840.0000
-11.9000   10840.0000
-11.4000   10840.0000
-10.9000   10840.0000
-10.4000   10840.0000
-9.9000   10840.0000
-9.4000   10840.0000
-8.9000   10840.0000
-8.4000   10840.0000
-7.9000   10840.0000
-7.4000   10840.0000
-6.9000   10840.0000
-6.4000   10840.0000
-5.9000   10840.0000
-5.4000   10840.0000
-4.9000   10840.0000
-4.4000   10840.0000
-3.9000   10840.0000
-3.4000   10840.0000
-2.9000   10840.0000
-2.4000   10840.0000
-1.9000   10840.0000
-1.4000   10822.9363
-0.9000   10823.1668
-0.4000   10823.4876
0.1000   10825.2748
0.6100   10820.3367
1.1200   10813.7652
1.6300   10810.8087
2.1400   10813.1171
2.6500   10809.3063
3.1600   10804.5658
3.6700   10784.5590
4.1800   10758.9784
4.6900   10773.9587
5.2000   10811.7061
5.7200   10829.1134
6.2300   10829.4491
6.7400   10830.8331
7.2500   10831.5542
7.7600   10830.5070
8.2700   10829.9896
8.7800   10834.6714
9.2900   10832.2394
9.8000   10835.3163
10.3100   10834.2940
10.8200   10837.3129
11.3300   10836.7780
11.8400   10838.8845
12.3500   10835.3744
12.8600   10838.6975
13.3700   10838.1759
13.8800   10837.2983
14.3900   10839.7554
14.9000   10843.6470
15.4100   10842.4217
15.9200   10843.9484
16.4400   10836.8381
16.9500   10837.2714
17.4600   10837.2602
17.9700   10840.8766
18.4800   10838.5640
18.9900   10839.5022
19.5000   10836.9663
20.0100   10837.9828
20.5200   10839.3101
21.0300   10840.1787
21.5400   10840.8403
22.0500   10843.0656
22.5600   10840.0191
23.0700   10842.2031
23.5800   10836.9545
24.0900   10838.8515
24.6000   10838.1638
25.1100   10840.9897
25.6200   10839.6613
26.1300   10838.5042
26.6400   10839.3866
27.1600   10841.6015
27.6700   10840.1675
28.1800   10837.0947
28.6900   10833.9629
29.2000   10837.8171
29.7100   10838.4117
30.2200   10841.4582
30.7300   10839.7897
31.2400   10840.8920
31.7500   10839.6771
32.2600   10841.2344
32.7700   10840.6531
33.2800   10842.3227
33.7900   10842.2272
34.3000   10842.1592
34.8100   10839.1631
35.3200   10838.0222
35.8300   10837.8549
36.3400   10841.7479
36.8500   10837.9475
37.3600   10839.8128
37.8800   10840.7495
38.3900   10844.9495
38.9000   10841.9852
39.4100   10848.2129
39.9200   10841.7708
40.4300   10843.3990
40.9400   10845.9053
41.4500   10846.5204
41.9600   10845.0740
42.4700   10842.9690
42.9800   10839.5110
43.4900   10845.7685
44.0000   10844.6634
44.5100   10841.0590
45.0200   10834.9182
45.5300   10839.2122
46.0400   10838.8308
46.5500   10842.0283
47.0600   10838.6926
47.5700   10845.4056
48.0800   10842.0250
48.6000   10841.3984
49.1100   10840.7364
49.6200   10841.4098
50.1300   10839.9815
50.6400   10844.3971
51.1500   10842.3297
51.6600   10842.0217
52.1700   10840.4937
52.6800   10842.7114
53.1900   10842.6918
53.7000   10847.6733
54.2100   10842.5201
54.7200   10843.4960
55.2300   10843.8721
55.7400   10847.5244
56.2500   10842.3150
56.7600   10846.2037
57.2700   10840.6779
57.7800   10841.3140
58.2900   10840.0202
58.8000   10839.5851
59.3200   10837.4004
59.8300   10840.0056
60.3400   10839.9978
60.8500   10842.5095
61.3600   10840.1933
61.8700   10841.6351
62.3800   10840.4586
62.8900   10842.6056
63.4000   10840.2085
63.9100   10839.6490
64.4200   10838.9741
64.9300   10840.3731
65.4400   10842.2494
65.9500   10844.0076
66.4600   10838.5040
66.9700   10839.4920
67.4800   10838.4288
67.9900   10840.2516
68.5000   10839.1014
69.0100   10842.2920
69.5200   10841.8337
70.0400   10841.6482
70.5500   10841.0973
71.0600   10842.5657
71.5700   10840.1152
72.0800   10845.4020
72.5900   10842.4905
73.1000   10838.5013
73.6100   10839.8239
74.1200   10844.4428
74.6300   10841.3248
75.1400   10842.2965
75.6500   10841.1794
76.1600   10839.4519
76.6700   10839.3506
77.1800   10845.0100
77.6900   10841.8530
78.2000   10840.1131
78.7100   10838.1140
79.2200   10837.6764
79.7300   10837.6597
80.2400   10841.5838
80.7600   10840.5496
81.2700   10842.4472
81.7800   10839.7308
82.2900   10841.7065
82.8000   10837.3051
83.3100   10839.4581
83.8200   10840.9472
84.3300   10840.2628
84.8400   10838.4920
85.3500   10838.9997
85.8600   10836.1880
86.3700   10827.8641
86.8800   10801.0927
87.3900   10761.8911
87.9000   10757.0294
88.4100   10756.4538
88.9200   10760.1006
89.4300   10755.3028
89.9400   10752.6671
90.4500   10740.0000
90.9600   10708.1951
91.4800   10710.0000
91.9900   10715.0000
92.5000   10802.0252
93.0100   10812.8199
93.5200   10813.5986
94.0300   10816.6303
94.5400   10822.2497
95.0500   10821.8645
95.5600   10825.1411
96.0700   10823.1141
96.5800   10817.0921
97.0900   10816.8096
97.6000   10817.8676
98.1100   10817.3565
98.6200   10819.9125
99.1300   10823.3750
99.6400   10820.8997
100.1500   10821.1883
100.6600   10875.0000
101.1700   10823.5199
101.6800   10826.9922
102.2000   10827.6251
102.7100   10824.6736
103.2200   10824.7846
103.7300   10826.5080
104.2400   10824.2954
104.7500   10822.2768
105.2600   10820.6675
105.7700   10817.9447
106.2800   10818.5180
106.7900   10816.8384
107.3000   10817.6054
107.8100   10818.3026
108.3200   10819.5325
108.8300   10821.3227
109.3400   10821.9509
109.8500   10819.1369
110.3600   10821.9752
110.8700   10826.4878
111.3800   10824.1696
111.8900   10821.8882
112.4000   10818.8555
112.9200   10821.9190
113.4300   10821.0234
113.9400   10819.7275
114.4500   10816.9612
114.9600   10820.1474
115.4700   10875.0000
115.9800   10823.0211
116.4900   10875.0000
117.0000   10815.7102
117.5100   10815.5111
118.0200   10819.1276
118.5300   10822.3690
119.0400   10819.4075
119.5500   10821.3518
120.0600   10831.9988
120.5700   10825.1650
121.0800   10822.2844
121.5900   10825.4649
122.1000   10824.2386
122.6100   10824.8671
123.1200   10831.1082
123.6400   10829.9515
124.1500   10827.8408
124.6600   10825.2250
125.1700   10822.9506
125.6800   10825.7555
126.1900   10826.9865
126.7000   10821.3034
127.2100   10824.7240
127.7200   10819.7130
128.2300   10821.0429
128.7400   10823.5002
129.2500   10826.9422
129.7600   10821.9212
130.2700   10822.2766
130.7800   10823.1360
131.2900   10820.2538
131.8000   10823.9437
132.3100   10826.6948
132.8200   10824.0850
133.3300   10829.6761
133.8400   10827.7683
134.3600   10828.1663
134.8700   10824.9219
135.3800   10827.5720
135.8900   10829.2362
136.4000   10830.4564
136.9100   10823.3978
137.4200   10814.6882
137.9300   10815.2726
138.4400   10821.5077
138.9500   10824.8895
139.4600   10826.9999
139.9700   10822.8394
140.4800   10822.1771
140.9900   10820.8768
141.5000   10826.6229
142.0100   10824.8821
142.5200   10825.0873
143.0300   10820.3119
143.5400   10821.9012
144.0500   10822.7919
144.5600   10829.0199
145.0800   10833.9395
145.5900   10836.8888
146.1000   10835.5676
146.6100   10835.7157
147.1200   10830.2518
147.6300   10830.5802
148.1400   10831.2046
148.6500   10825.4618
149.1600   10822.5327
149.6700   10830.7757
150.1800   10831.8170
150.6900   10830.4705
151.2000   10827.2325
151.7100   10885.0000
152.2200   10831.2388
152.7300   10830.5057
153.2400   10826.2686
153.7500   10829.3457
154.2600   10823.7870
154.7700   10827.8187
155.2800   10820.4841
155.8000   10822.9507
156.3100   10823.0648
156.8200   10824.3295
157.3300   10822.5846
157.8400   10825.1599
158.3500   10820.5402
158.8600   10822.9584
159.3700   10825.1002
159.8800   10829.3684
160.3900   10823.6996
160.9000   10825.5107
161.4100   10824.0991
161.9200   10827.0817
162.4300   10827.8164
162.9400   10830.7708
163.4500   10824.9237
163.9600   10828.7841
164.4700   10823.1473
164.9800   10819.0687
165.4900   10823.4295
166.0000   10827.0490
166.5200   10827.8618
167.0300   10824.8546
167.5400   10823.2946
168.0500   10829.4597
168.5600   10826.2706
169.0700   10828.9112
169.5800   10823.4706
170.0900   10827.5409
170.6000   10829.7876
171.1100   10832.9826
171.6200   10830.5729
172.1300   10828.7855
172.6400   10823.1217
173.1500   10826.1908
173.6600   10828.4246
174.1700   10836.9031
174.6800   10830.3606
175.1900   10830.0632
175.7000   10829.4420
176.2100   10830.6947
176.7200   10826.4738
177.2400   10825.8335
177.7500   10824.5513
178.2600   10825.7472
178.7700   10823.2769
179.2800   10827.5967
179.7900   10819.9052
180.3000   10823.4412
180.8100   10826.2304
181.3200   10833.7821
181.8300   10830.5678
182.3400   10829.9069
182.8500   10825.3045
183.3600   10826.3541
183.8700   10825.7841
184.3800   10823.5907
184.8900   10825.2513
185.4000   10823.7751
185.9100   10821.1223
186.4200   10824.8988
186.9300   10823.0124
187.4400   10829.5074
187.9600   10826.8197
188.4700   10824.2572
188.9800   10824.2406
189.4900   10827.4894
190.0000   10821.9074
190.5100   10824.0247
191.0200   10821.1579
191.5300   10875.0000
192.0400   10822.6837
192.5500   10825.5157
193.0600   10825.7635
193.5700   10824.1883
194.0800   10828.7211
194.5900   10826.8126
195.1000   10824.4631
195.6100   10824.2046
196.1200   10821.8745
196.6300   10820.9926
197.1400   10818.5924
197.6500   10822.3093
198.1600   10825.5590
198.6800   10824.7168
199.1900   10826.1284
199.7000   10828.2507
200.2100   10826.3708
200.7200   10826.8500
201.2300   10824.9124
201.7400   10826.0749
202.2500   10821.5214
202.7600   10818.9721
203.2700   10821.8448
203.7800   10826.9433
204.2900   10823.4139
204.8000   10826.4122
205.3100   10825.7873
205.8200   10822.1860
206.3300   10821.4555
206.8400   10823.3255
207.3500   10825.8640
207.8600   10825.9088
208.3700   10827.6623
208.8800   10829.7070
209.4000   10824.6277
209.9100   10827.2519
210.4200   10826.3526
210.9300   10825.8831
211.4400   10827.5007
211.9500   10830.7163
212.4600   10827.3417
212.9700   10826.9309
213.4800   10826.4204
213.9900   10825.6245
214.5000   10823.9453
215.0100   10821.9346
215.5200   10826.5989
216.0300   10823.4528
216.5400   10823.8205
217.0500   10828.8656
217.5600   10828.9123
218.0700   10825.3242
218.5800   10825.8556
219.0900   10826.7122
219.6000   10819.8742
220.1200   10820.1084
220.6300   10828.5303
221.1400   10827.8794
221.6500   10828.0083
222.1600   10826.8696
222.6700   10824.9334
223.1800   10825.0647
223.6900   10827.6436
224.2000   10829.3875
224.7100   10826.4610
225.2200   10875.0000
225.7300   10825.1712
226.2400   10825.9786
226.7500   10825.4674
227.2600   10824.3788
227.7700   10827.4860
228.2800   10875.0000
228.7900   10823.6720
229.3000   10816.2634
229.8100   10825.7821
230.3200   10826.3605
230.8400   10824.5798
231.3500   10821.3184
231.8600   10821.8254
232.3700   10821.1008
232.8800   10821.4981
233.3900   10820.7931
233.9000   10824.0495
234.4100   10824.3812
234.9200   10828.6917
235.4300   10830.2398
235.9400   10826.9591
236.4500   10825.4623
236.9600   10822.4180
237.4700   10822.0780
237.9800   10822.1407
238.4900   10831.6668
239.0000   10836.8558
239.5100   10834.3122
240.0200   10828.1448
240.5300   10823.9291
241.0400   10821.3848
241.5600   10823.4053
242.0700   10826.4288
242.5800   10827.0558
243.0900   10826.9425
243.6000   10827.0671
244.1100   10824.4745
244.6200   10824.9105
245.1300   10824.3126
245.6400   10827.6701
246.1500   10827.4385
246.6600   10831.0983
247.1700   10850.0000
247.6800   10825.1595
248.1900   10823.3057
248.7000   10826.5381
249.2100   10828.8057
249.7200   10830.2099
250.2300   10823.3773
250.7400   10822.4580
251.2500   10822.0962
251.7600   10826.2062
252.2800   10823.9537
252.7900   10820.1391
253.3000   10817.6867
253.8100   10823.0757
254.3200   10825.6848
254.8300   10829.6057
255.3400   10827.8277
255.8500   10831.9912
256.3600   10831.7720
256.8700   10832.3012
257.3800   10826.0281
257.8900   10825.8957
258.4000   10823.8405
258.9100   10821.9441
259.4200   10822.9640
259.9300   10825.8025
260.4400   10821.0140
260.9500   10825.5840
261.4600   10825.9693
261.9700   10823.5237
262.4800   10823.0824
263.0000   10826.1628
263.5100   10885.0000
264.0200   10823.7485
264.5300   10825.1515
265.0400   10826.8442
265.5500   10826.5096
266.0600   10831.0085
266.5700   10829.5414
267.0800   10828.5456
267.5900   10828.6244
268.1000   10834.7020
268.6100   10826.8401
269.1200   10825.4407
269.6300   10823.3923
270.1400   10826.6880
270.6500   10826.6861
271.1600   10832.1778
271.6700   10885.0000
272.1800   10828.3326
272.6900   10826.8741
273.2000   10829.9844
273.7200   10829.2890
274.2300   10823.6780
274.7400   10825.4809
275.2500   10824.1811
275.7600   10820.7094
276.2700   10823.5694
276.7800   10824.0380
277.2900   10824.0421
277.8000   10822.4428
278.3100   10825.4060
278.8200   10823.7448
279.3300   10825.9698
279.8400   10825.4841
280.3500   10827.8355
280.8600   10827.5481
281.3700   10827.7911
281.8800   10826.2946
282.3900   10827.5937
282.9000   10825.5834
283.4100   10828.6605
283.9200   10829.2202
284.4400   10830.4755
284.9500   10825.3031
285.4600   10826.4524
285.9700   10823.2730
286.4800   10828.7505
286.9900   10830.1382
287.5000   10827.7308
288.0100   10826.4303
288.5200   10828.3311
289.0300   10826.6141
289.5400   10830.1741
290.0500   10827.3104
290.5600   10825.7706
291.0700   10825.8031
291.5800   10827.3773
292.0900   10828.4018
292.6000   10829.8229
293.1100   10825.6144
293.6200   10831.2805
294.1300   10875.0000
294.6400   10828.0164
295.1600   10821.7464
295.6700   10820.5979
296.1800   10821.2625
296.6900   10826.3178
297.2000   10827.0883
297.7100   10831.2769
298.2200   10825.8291
298.7300   10829.3486
299.2400   10830.6607
299.7500   10829.4800
300.2600   10825.4456
300.7700   10824.2748
301.2800   10821.2273
301.7900   10817.2668
302.3000   10821.2917
302.8100   10822.4306
303.3200   10818.6111
303.8300   10823.1801
304.3400   10820.8627
304.8500   10823.7301
305.3600   10824.6071
305.8800   10828.8636
306.3900   10828.0798
306.9000   10829.5605
307.4100   10828.6950
307.9200   10831.3525
308.4300   10830.3718
308.9400   10826.4714
309.4500   10823.8772
309.9600   10825.9809
310.4700   10826.8659
310.9800   10827.4418
311.4900   10822.7076
312.0000   10824.6856
312.5100   10823.6113
