#----------------------------------
# BOTDR
# DSTS: v.07.1
# Wed Sep 29 12:21:12 2021
#
# Channel No  = 0
# Partial   = 0
# Partial Start  = 0.00
# Partial End  = 5118.55
# Fibre Length    [m]   = 5118.55  0.00
# Fiber Delay    [m]   = 118.55
# Connection Point    [m]   = 198.64
# Rpt.period      [us]  = 65
# Pulse width     [ns]  = 40
# Frequency Start [MHz] = 10690.00
# Frequency End:  [MHz] = 10990.00
# Frequency Step: [MHz] = 5.00
# No.Averages:    [-]   = 12000
# Sampling Rate   [-]   = 2 (50.00MSs, spatial step = 2.00m)
# Input Range     [-]   = 2 (1V)
# Pulse Delay     [m]   = 100
# Post Pulse Data [m]   = 0
# Fiber Type      [-]   = CH4 Land
# Fiber  temperature [C] = 30.00
# Fiber  Bril Frequency  [MHz] = 10840.00
# Fiber  Strain Coefficient  [ue/MHz] = 18.9150
# Fiber Temperature Coefficient [C/MHz] = 0.9765
# Fiber Refractive Index = 1.4682
# Fiber Sigma = 0.2000
#
#----------------------------------
2D Baseline
2509

-118.5500   10840.0000
-116.5500   10840.0000
-114.5500   10840.0000
-112.5500   10840.0000
-110.5500   10840.0000
-108.5500   10840.0000
-106.5500   10840.0000
-104.5500   10840.0000
-102.5500   10840.0000
-100.5500   10840.0000
-98.5500   10840.0000
-96.5500   10840.0000
-94.5500   10840.0000
-92.5500   10840.0000
-90.5500   10840.0000
-88.5500   10840.0000
-86.5500   10840.0000
-84.5500   10840.0000
-82.5500   10840.0000
-80.5500   10840.0000
-78.5500   10840.0000
-76.5500   10840.0000
-74.5500   10840.0000
-72.5500   10840.0000
-70.5500   10840.0000
-68.5500   10840.0000
-66.5500   10840.0000
-64.5500   10840.0000
-62.5500   10840.0000
-60.5500   10840.0000
-58.5500   10840.0000
-56.5500   10840.0000
-54.5500   10840.0000
-52.5500   10840.0000
-50.5500   10840.0000
-48.5500   10840.0000
-46.5500   10840.0000
-44.5500   10840.0000
-42.5500   10840.0000
-40.5500   10840.0000
-38.5500   10840.0000
-36.5500   10840.0000
-34.5500   10840.0000
-32.5500   10840.0000
-30.5500   10840.0000
-28.5500   10840.0000
-26.5500   10840.0000
-24.5500   10840.0000
-22.5500   10840.0000
-20.5500   10840.0000
-18.5500   10840.0000
-16.5500   10840.0000
-14.5500   10840.0000
-12.5500   10840.0000
-10.5500   10840.0000
-8.5500   10840.0000
-6.5500   10840.0000
-4.5500   10840.0000
-2.5500   10817.6139
-0.5500   10814.1896
1.4900   10805.0485
3.5300   10771.6231
5.5800   10742.9079
7.6200   10795.0000
9.6600   10799.4297
11.7000   10801.2187
13.7400   10801.0560
15.7900   10801.4133
17.8300   10801.8035
19.8700   10801.6425
21.9100   10801.2627
23.9500   10800.9879
25.9900   10800.9517
28.0400   10800.8791
30.0800   10800.9351
32.1200   10801.1870
34.1600   10802.0718
36.2000   10802.9188
38.2500   10803.3246
40.2900   10803.4061
42.3300   10803.7963
44.3700   10804.2378
46.4100   10804.6757
48.4600   10805.5817
50.5000   10805.8721
52.5400   10805.4792
54.5800   10805.4345
56.6200   10804.7668
58.6700   10805.6196
60.7100   10807.7946
62.7500   10808.9335
64.7900   10808.6630
66.8300   10807.3029
68.8700   10805.9535
70.9200   10805.6284
72.9600   10805.7656
75.0000   10805.5226
77.0400   10805.7858
79.0800   10805.7371
81.1300   10805.4429
83.1700   10805.9945
85.2100   10807.5389
87.2500   10809.8791
89.2900   10812.8818
91.3400   10814.8023
93.3800   10815.3347
95.4200   10815.3042
97.4600   10815.1103
99.5000   10815.0576
101.5500   10815.3918
103.5900   10815.1760
105.6300   10815.0062
107.6700   10815.2051
109.7100   10815.6205
111.7500   10815.6451
113.8000   10815.2518
115.8400   10815.1510
117.8800   10814.9014
119.9200   10814.7640
121.9600   10814.4878
124.0100   10814.3340
126.0500   10814.4554
128.0900   10814.5981
130.1300   10814.5891
132.1700   10814.8518
134.2200   10815.5238
136.2600   10815.2178
138.3000   10814.2230
140.3400   10814.3707
142.3800   10815.4091
144.4300   10815.4353
146.4700   10815.1529
148.5100   10815.3051
150.5500   10814.5992
152.5900   10813.2132
154.6300   10812.3995
156.6800   10813.4588
158.7200   10813.7317
160.7600   10811.7872
162.8000   10810.6185
164.8400   10812.0958
166.8900   10814.0443
168.9300   10814.7909
170.9700   10813.8517
173.0100   10810.7169
175.0500   10808.6380
177.1000   10808.5810
179.1400   10810.9315
181.1800   10813.6210
183.2200   10813.8507
185.2600   10812.3476
187.3100   10811.1869
189.3500   10811.1558
191.3900   10810.6357
193.4300   10810.9228
195.4700   10813.2095
197.5100   10815.5069
199.5600   10815.6153
201.6000   10814.3139
203.6400   10812.4352
205.6800   10812.9898
207.7200   10814.7704
209.7700   10815.2597
211.8100   10815.2004
213.8500   10814.9893
215.8900   10814.8702
217.9300   10814.6554
219.9800   10814.6385
222.0200   10814.5882
224.0600   10814.4895
226.1000   10814.0849
228.1400   10813.3676
230.1900   10813.4804
232.2300   10814.4420
234.2700   10815.3388
236.3100   10815.8749
238.3500   10816.0772
240.3900   10816.0799
242.4400   10816.2995
244.4800   10816.6222
246.5200   10817.1581
248.5600   10817.2449
250.6000   10816.4556
252.6500   10814.6946
254.6900   10814.3969
256.7300   10815.8206
258.7700   10815.9782
260.8100   10815.5517
262.8600   10815.1619
264.9000   10814.4354
266.9400   10813.8897
268.9800   10813.6190
271.0200   10813.6924
273.0700   10812.8802
275.1100   10811.5489
277.1500   10809.9963
279.1900   10809.3188
281.2300   10809.0521
283.2700   10808.9526
285.3200   10809.2072
287.3600   10809.8114
289.4000   10809.9676
291.4400   10809.8622
293.4800   10810.0413
295.5300   10810.3031
297.5700   10810.2758
299.6100   10810.0353
301.6500   10809.3617
303.6900   10809.2819
305.7400   10809.3333
307.7800   10808.9624
309.8200   10808.7082
311.8600   10808.5409
313.9000   10808.3827
315.9500   10808.7958
317.9900   10809.2441
320.0300   10809.4050
322.0700   10809.4254
324.1100   10809.6289
326.1500   10809.7027
328.2000   10809.8905
330.2400   10810.0764
332.2800   10809.7860
334.3200   10809.5768
336.3600   10809.6804
338.4100   10809.3098
340.4500   10809.0464
342.4900   10808.9889
344.5300   10808.8822
346.5700   10808.9859
348.6200   10808.6420
350.6600   10808.1122
352.7000   10808.0576
354.7400   10808.5505
356.7800   10809.0657
358.8300   10809.0866
360.8700   10809.5928
362.9100   10810.4462
364.9500   10810.6950
366.9900   10811.1406
369.0300   10811.6104
371.0800   10811.5084
373.1200   10811.7816
375.1600   10811.2647
377.2000   10811.1905
379.2400   10812.3393
381.2900   10813.3258
383.3300   10813.4134
385.3700   10813.5380
387.4100   10813.6595
389.4500   10813.6019
391.5000   10813.5392
393.5400   10813.3820
395.5800   10813.0296
397.6200   10813.0766
399.6600   10813.1924
401.7100   10813.2698
403.7500   10812.9477
405.7900   10812.5240
407.8300   10811.7701
409.8700   10811.4152
411.9100   10812.1210
413.9600   10812.8933
416.0000   10812.9768
418.0400   10812.8612
420.0800   10813.1651
422.1200   10813.4866
424.1700   10813.7992
426.2100   10813.8194
428.2500   10814.0142
430.2900   10814.3174
432.3300   10814.6011
434.3800   10814.3502
436.4200   10813.9152
438.4600   10813.3974
440.5000   10811.8627
442.5400   10809.0685
444.5900   10807.1435
446.6300   10806.2934
448.6700   10806.1339
450.7100   10805.7681
452.7500   10805.9630
454.7900   10806.4547
456.8400   10806.3330
458.8800   10806.2743
460.9200   10806.4981
462.9600   10807.0240
465.0000   10807.0921
467.0500   10807.3107
469.0900   10809.5767
471.1300   10818.0623
473.1700   10826.2122
475.2100   10828.3127
477.2600   10828.7696
479.3000   10829.0619
481.3400   10828.8737
483.3800   10829.1595
485.4200   10829.4764
487.4700   10829.3783
489.5100   10829.1050
491.5500   10829.9348
493.5900   10831.8657
495.6300   10834.2431
497.6700   10835.5155
499.7200   10835.9273
501.7600   10836.2389
503.8000   10836.3486
505.8400   10835.8045
507.8800   10835.8275
509.9300   10835.9778
511.9700   10836.2204
514.0100   10836.4405
516.0500   10836.5346
518.0900   10836.9280
520.1400   10836.7564
522.1800   10836.3751
524.2200   10835.6738
526.2600   10834.4280
528.3000   10834.6664
530.3500   10836.4825
532.3900   10837.2410
534.4300   10837.6022
536.4700   10838.3047
538.5100   10837.6487
540.5500   10836.2308
542.6000   10836.9925
544.6400   10837.9252
546.6800   10838.4353
548.7200   10838.8779
550.7600   10838.7719
552.8100   10838.5688
554.8500   10838.3206
556.8900   10837.4819
558.9300   10835.5432
560.9700   10834.8235
563.0200   10836.2413
565.0600   10836.8063
567.1000   10837.0147
569.1400   10836.8672
571.1800   10837.0743
573.2300   10837.6277
575.2700   10837.7266
577.3100   10837.6204
579.3500   10837.5622
581.3900   10835.9990
583.4300   10834.0946
585.4800   10834.8402
587.5200   10835.6713
589.5600   10834.2062
591.6000   10832.1935
593.6400   10833.1664
595.6900   10833.8151
597.7300   10832.5277
599.7700   10831.4670
601.8100   10832.9765
603.8500   10835.1887
605.9000   10836.0348
607.9400   10835.6933
609.9800   10835.7386
612.0200   10835.6878
614.0600   10835.1238
616.1100   10836.3801
618.1500   10839.2085
620.1900   10841.1845
622.2300   10841.6191
624.2700   10840.6411
626.3100   10839.6330
628.3600   10838.6130
630.4000   10837.4583
632.4400   10836.9673
634.4800   10837.0981
636.5200   10837.6248
638.5700   10837.8849
640.6100   10838.0518
642.6500   10837.5682
644.6900   10837.0634
646.7300   10837.3658
648.7800   10838.3607
650.8200   10838.5615
652.8600   10838.1112
654.9000   10838.0718
656.9400   10837.9549
658.9900   10837.8380
661.0300   10837.3238
663.0700   10836.4110
665.1100   10835.5917
667.1500   10835.6124
669.1900   10836.1467
671.2400   10836.5812
673.2800   10836.3661
675.3200   10834.7203
677.3600   10833.2802
679.4000   10833.5551
681.4500   10833.4389
683.4900   10833.1551
685.5300   10833.3392
687.5700   10833.4555
689.6100   10833.1990
691.6600   10832.7741
693.7000   10832.5405
695.7400   10832.3777
697.7800   10832.5338
699.8200   10832.7224
701.8700   10832.8776
703.9100   10832.7123
705.9500   10832.7787
707.9900   10832.7052
710.0300   10832.0991
712.0700   10831.8593
714.1200   10831.0758
716.1600   10830.7648
718.2000   10831.3719
720.2400   10831.8140
722.2800   10831.8689
724.3300   10832.2266
726.3700   10832.6441
728.4100   10833.1176
730.4500   10833.4972
732.4900   10834.0265
734.5400   10834.1753
736.5800   10833.9766
738.6200   10833.7553
740.6600   10833.5778
742.7000   10833.2130
744.7500   10832.9463
746.7900   10832.8547
748.8300   10833.3475
750.8700   10833.8530
752.9100   10833.9509
754.9500   10833.9616
757.0000   10833.3468
759.0400   10832.7336
761.0800   10832.7762
763.1200   10832.8692
765.1600   10832.6207
767.2100   10832.3464
769.2500   10832.1555
771.2900   10832.1392
773.3300   10832.5136
775.3700   10833.4716
777.4200   10834.2145
779.4600   10834.4834
781.5000   10834.4029
783.5400   10834.2800
785.5800   10834.1165
787.6300   10834.1351
789.6700   10834.7187
791.7100   10834.8984
793.7500   10834.1567
795.7900   10833.6286
797.8300   10834.0236
799.8800   10834.5670
801.9200   10834.2552
803.9600   10833.7327
806.0000   10833.5142
808.0400   10833.3693
810.0900   10833.3755
812.1300   10833.9991
814.1700   10834.2067
816.2100   10833.9296
818.2500   10833.4033
820.3000   10833.5461
822.3400   10834.1012
824.3800   10834.7701
826.4200   10835.0541
828.4600   10834.4232
830.5100   10833.5585
832.5500   10833.5624
834.5900   10833.8465
836.6300   10833.6392
838.6700   10833.5449
840.7100   10833.6540
842.7600   10833.6535
844.8000   10833.2212
846.8400   10832.9590
848.8800   10832.9051
850.9200   10833.3494
852.9700   10834.1651
855.0100   10833.8141
857.0500   10833.1694
859.0900   10833.8865
861.1300   10834.2176
863.1800   10834.0665
865.2200   10834.0049
867.2600   10833.7567
869.3000   10833.1340
871.3400   10832.6334
873.3900   10831.9864
875.4300   10831.9286
877.4700   10831.9410
879.5100   10830.6348
881.5500   10830.6307
883.5900   10834.2011
885.6400   10837.4881
887.6800   10838.7744
889.7200   10837.8752
891.7600   10836.2944
893.8000   10834.9223
895.8500   10832.9549
897.8900   10830.9436
899.9300   10830.6912
901.9700   10831.9733
904.0100   10832.2918
906.0600   10831.5191
908.1000   10830.9117
910.1400   10831.4371
912.1800   10833.6392
914.2200   10836.3378
916.2700   10838.1877
918.3100   10838.1634
920.3500   10837.8170
922.3900   10837.3943
924.4300   10837.1232
926.4700   10835.4891
928.5200   10833.5303
930.5600   10835.2120
932.6000   10837.2238
934.6400   10837.5732
936.6800   10837.6906
938.7300   10837.8229
940.7700   10837.7063
942.8100   10837.1592
944.8500   10836.9561
946.8900   10837.2876
948.9400   10837.1018
950.9800   10834.9863
953.0200   10833.2362
955.0600   10834.7238
957.1000   10836.5317
959.1500   10837.1924
961.1900   10837.6826
963.2300   10837.7990
965.2700   10837.0657
967.3100   10835.0055
969.3500   10830.5732
971.4000   10827.7081
973.4400   10826.8671
975.4800   10826.9905
977.5200   10829.5863
979.5600   10834.2345
981.6100   10836.2579
983.6500   10836.9301
985.6900   10837.3192
987.7300   10837.0984
989.7700   10836.5739
991.8200   10836.9629
993.8600   10837.0286
995.9000   10836.6619
997.9400   10835.8764
999.9800   10834.0481
1002.0300   10833.6302
1004.0700   10835.7844
1006.1100   10837.0701
1008.1500   10837.8264
1010.1900   10838.2196
1012.2300   10838.4124
1014.2800   10838.7903
1016.3200   10839.2890
1018.3600   10839.3625
1020.4000   10838.9118
1022.4400   10838.3772
1024.4900   10836.3601
1026.5300   10835.1853
1028.5700   10837.7278
1030.6100   10839.0042
1032.6500   10839.0532
1034.7000   10839.1796
1036.7400   10838.6700
1038.7800   10838.2089
1040.8200   10838.2331
1042.8600   10838.5176
1044.9100   10838.3366
1046.9500   10837.4305
1048.9900   10835.5057
1051.0300   10835.3631
1053.0700   10837.7895
1055.1100   10838.9591
1057.1600   10839.2251
1059.2000   10838.7803
1061.2400   10838.4582
1063.2800   10838.5397
1065.3200   10838.0036
1067.3700   10837.8472
1069.4100   10837.4334
1071.4500   10836.5553
1073.4900   10834.9722
1075.5300   10835.2864
1077.5800   10836.7742
1079.6200   10836.6315
1081.6600   10836.2694
1083.7000   10836.4034
1085.7400   10836.5785
1087.7900   10836.6029
1089.8300   10836.1715
1091.8700   10836.0199
1093.9100   10835.7678
1095.9500   10835.0464
1097.9900   10833.7567
1100.0400   10834.6028
1102.0800   10836.4522
1104.1200   10837.5856
1106.1600   10837.9232
1108.2000   10838.1831
1110.2500   10838.4327
1112.2900   10838.5447
1114.3300   10839.0038
1116.3700   10839.4957
1118.4100   10839.3304
1120.4600   10837.7614
1122.5000   10836.1815
1124.5400   10837.7487
1126.5800   10838.8106
1128.6200   10838.9631
1130.6700   10839.1911
1132.7100   10839.2276
1134.7500   10839.1708
1136.7900   10838.8955
1138.8300   10838.6467
1140.8700   10838.3174
1142.9200   10837.2980
1144.9600   10835.1432
1147.0000   10833.8523
1149.0400   10835.9123
1151.0800   10837.8652
1153.1300   10838.1507
1155.1700   10838.0441
1157.2100   10838.2384
1159.2500   10838.7746
1161.2900   10838.4005
1163.3400   10837.9486
1165.3800   10838.0517
1167.4200   10837.4675
1169.4600   10835.3970
1171.5000   10834.9073
1173.5500   10836.3658
1175.5900   10837.0887
1177.6300   10837.7553
1179.6700   10837.9456
1181.7100   10837.8484
1183.7500   10837.6095
1185.8000   10837.4269
1187.8400   10837.8908
1189.8800   10837.9884
1191.9200   10837.4146
1193.9600   10835.2932
1196.0100   10834.9534
1198.0500   10836.9952
1200.0900   10837.7410
1202.1300   10838.0081
1204.1700   10838.5411
1206.2200   10838.5781
1208.2600   10838.3158
1210.3000   10838.8110
1212.3400   10839.2619
1214.3800   10839.0653
1216.4300   10838.2114
1218.4700   10836.0660
1220.5100   10836.0715
1222.5500   10837.9980
1224.5900   10838.5111
1226.6300   10838.4877
1228.6800   10838.4189
1230.7200   10838.3001
1232.7600   10838.2954
1234.8000   10838.2729
1236.8400   10838.4801
1238.8900   10838.5585
1240.9300   10837.5513
1242.9700   10835.0064
1245.0100   10835.1453
1247.0500   10837.2537
1249.1000   10838.3706
1251.1400   10838.5855
1253.1800   10838.1636
1255.2200   10837.2485
1257.2600   10836.2588
1259.3100   10836.6779
1261.3500   10837.2079
1263.3900   10837.4876
1265.4300   10836.1751
1267.4700   10834.2685
1269.5100   10835.8281
1271.5600   10837.8544
1273.6000   10838.1901
1275.6400   10837.8220
1277.6800   10838.0951
1279.7200   10838.6924
1281.7700   10838.6138
1283.8100   10838.5485
1285.8500   10838.1898
1287.8900   10837.7983
1289.9300   10836.5507
1291.9800   10834.4030
1294.0200   10834.6852
1296.0600   10836.8080
1298.1000   10837.7429
1300.1400   10837.7636
1302.1900   10837.4684
1304.2300   10837.5803
1306.2700   10837.8845
1308.3100   10838.1521
1310.3500   10838.2606
1312.3900   10838.7929
1314.4400   10838.2130
1316.4800   10836.1972
1318.5200   10836.8489
1320.5600   10837.5494
1322.6000   10837.1464
1324.6500   10837.9076
1326.6900   10838.9968
1328.7300   10838.8232
1330.7700   10838.6376
1332.8100   10838.5578
1334.8600   10838.0965
1336.9000   10837.0841
1338.9400   10834.7784
1340.9800   10831.9356
1343.0200   10832.1606
1345.0700   10835.5969
1347.1100   10837.8871
1349.1500   10838.4766
1351.1900   10838.4177
1353.2300   10838.3205
1355.2700   10837.6573
1357.3200   10834.2295
1359.3600   10830.0206
1361.4000   10828.7929
1363.4400   10828.8439
1365.4800   10828.7906
1367.5300   10828.4204
1369.5700   10828.1826
1371.6100   10828.5497
1373.6500   10828.6952
1375.6900   10828.3671
1377.7400   10828.9142
1379.7800   10829.5225
1381.8200   10829.9504
1383.8600   10830.4749
1385.9000   10831.6844
1387.9500   10833.1799
1389.9900   10834.2475
1392.0300   10833.7540
1394.0700   10832.6329
1396.1100   10833.7002
1398.1500   10835.0766
1400.2000   10835.5317
1402.2400   10834.7517
1404.2800   10834.1661
1406.3200   10833.8033
1408.3600   10833.1657
1410.4100   10834.3591
1412.4500   10836.2359
1414.4900   10837.0422
1416.5300   10837.1593
1418.5700   10835.0874
1420.6200   10831.7161
1422.6600   10831.2414
1424.7000   10834.1021
1426.7400   10835.8707
1428.7800   10835.8361
1430.8300   10835.3242
1432.8700   10834.4017
1434.9100   10833.2291
1436.9500   10832.6347
1438.9900   10832.8992
1441.0300   10833.3810
1443.0800   10833.9234
1445.1200   10834.5470
1447.1600   10834.1206
1449.2000   10833.5675
1451.2400   10833.9735
1453.2900   10834.3112
1455.3300   10834.4990
1457.3700   10834.7443
1459.4100   10834.9240
1461.4500   10835.2340
1463.5000   10835.5151
1465.5400   10835.4057
1467.5800   10835.6246
1469.6200   10836.4681
1471.6600   10836.2172
1473.7100   10834.8953
1475.7500   10832.2356
1477.7900   10830.4545
1479.8300   10828.6656
1481.8700   10828.7873
1483.9100   10830.6958
1485.9600   10830.4962
1488.0000   10829.1389
1490.0400   10827.5088
1492.0800   10827.0803
1494.1200   10827.7365
1496.1700   10828.4683
1498.2100   10829.2606
1500.2500   10829.9969
1502.2900   10830.0953
1504.3300   10828.5577
1506.3800   10827.3467
1508.4200   10828.9039
1510.4600   10831.5877
1512.5000   10833.7609
1514.5400   10834.7295
1516.5900   10832.7847
1518.6300   10829.8147
1520.6700   10827.0085
1522.7100   10825.1640
1524.7500   10824.4890
1526.7900   10824.7185
1528.8400   10825.4366
1530.8800   10826.8648
1532.9200   10829.3446
1534.9600   10832.6051
1537.0000   10835.4254
1539.0500   10836.4361
1541.0900   10837.6978
1543.1300   10838.9980
1545.1700   10839.4569
