#----------------------------------
# BOTDR
# DSTS: v.07.1
# Fri Oct 22 14:16:33 2021
#
# Channel No  = 0
# Partial   = 0
# Partial Start  = 0.00
# Partial End  = 3112.57
# Fibre Length    [m]   = 3112.57  0.00
# Fiber Delay    [m]   = 112.57
# Connection Point    [m]   = 192.66
# Rpt.period      [us]  = 65
# Pulse width     [ns]  = 30
# Frequency Start [MHz] = 10690.00
# Frequency End:  [MHz] = 10990.00
# Frequency Step: [MHz] = 5.00
# No.Averages:    [-]   = 12000
# Sampling Rate   [-]   = 0 (200.00MSs, spatial step = 0.50m)
# Input Range     [-]   = 2 (1V)
# Pulse Delay     [m]   = 100
# Post Pulse Data [m]   = 0
# Fiber Type      [-]   = CH4 Land
# Fiber  temperature [C] = 27.00
# Fiber  Bril Frequency  [MHz] = 10840.00
# Fiber  Strain Coefficient  [ue/MHz] = 18.9150
# Fiber Temperature Coefficient [C/MHz] = 0.9765
# Fiber Refractive Index = 1.4682
# Fiber Sigma = 0.2000
#
#----------------------------------
6104

-112.5700   10840.0000
-112.0700   10840.0000
-111.5700   10840.0000
-111.0700   10840.0000
-110.5700   10840.0000
-110.0700   10840.0000
-109.5700   10840.0000
-109.0700   10840.0000
-108.5700   10840.0000
-108.0700   10840.0000
-107.5700   10840.0000
-107.0700   10840.0000
-106.5700   10840.0000
-106.0700   10840.0000
-105.5700   10840.0000
-105.0700   10840.0000
-104.5700   10840.0000
-104.0700   10840.0000
-103.5700   10840.0000
-103.0700   10840.0000
-102.5700   10840.0000
-102.0700   10840.0000
-101.5700   10840.0000
-101.0700   10840.0000
-100.5700   10840.0000
-100.0700   10840.0000
-99.5700   10840.0000
-99.0700   10840.0000
-98.5700   10840.0000
-98.0700   10840.0000
-97.5700   10840.0000
-97.0700   10840.0000
-96.5700   10840.0000
-96.0700   10840.0000
-95.5700   10840.0000
-95.0700   10840.0000
-94.5700   10840.0000
-94.0700   10840.0000
-93.5700   10840.0000
-93.0700   10840.0000
-92.5700   10840.0000
-92.0700   10840.0000
-91.5700   10840.0000
-91.0700   10840.0000
-90.5700   10840.0000
-90.0700   10840.0000
-89.5700   10840.0000
-89.0700   10840.0000
-88.5700   10840.0000
-88.0700   10840.0000
-87.5700   10840.0000
-87.0700   10840.0000
-86.5700   10840.0000
-86.0700   10840.0000
-85.5700   10840.0000
-85.0700   10840.0000
-84.5700   10840.0000
-84.0700   10840.0000
-83.5700   10840.0000
-83.0700   10840.0000
-82.5700   10840.0000
-82.0700   10840.0000
-81.5700   10840.0000
-81.0700   10840.0000
-80.5700   10840.0000
-80.0700   10840.0000
-79.5700   10840.0000
-79.0700   10840.0000
-78.5700   10840.0000
-78.0700   10840.0000
-77.5700   10840.0000
-77.0700   10840.0000
-76.5700   10840.0000
-76.0700   10840.0000
-75.5700   10840.0000
-75.0700   10840.0000
-74.5700   10840.0000
-74.0700   10840.0000
-73.5700   10840.0000
-73.0700   10840.0000
-72.5700   10840.0000
-72.0700   10840.0000
-71.5700   10840.0000
-71.0700   10840.0000
-70.5700   10840.0000
-70.0700   10840.0000
-69.5700   10840.0000
-69.0700   10840.0000
-68.5700   10840.0000
-68.0700   10840.0000
-67.5700   10840.0000
-67.0700   10840.0000
-66.5700   10840.0000
-66.0700   10840.0000
-65.5700   10840.0000
-65.0700   10840.0000
-64.5700   10840.0000
-64.0700   10840.0000
-63.5700   10840.0000
-63.0700   10840.0000
-62.5700   10840.0000
-62.0700   10840.0000
-61.5700   10840.0000
-61.0700   10840.0000
-60.5700   10840.0000
-60.0700   10840.0000
-59.5700   10840.0000
-59.0700   10840.0000
-58.5700   10840.0000
-58.0700   10840.0000
-57.5700   10840.0000
-57.0700   10840.0000
-56.5700   10840.0000
-56.0700   10840.0000
-55.5700   10840.0000
-55.0700   10840.0000
-54.5700   10840.0000
-54.0700   10840.0000
-53.5700   10840.0000
-53.0700   10840.0000
-52.5700   10840.0000
-52.0700   10840.0000
-51.5700   10840.0000
-51.0700   10840.0000
-50.5700   10840.0000
-50.0700   10840.0000
-49.5700   10840.0000
-49.0700   10840.0000
-48.5700   10840.0000
-48.0700   10840.0000
-47.5700   10840.0000
-47.0700   10840.0000
-46.5700   10840.0000
-46.0700   10840.0000
-45.5700   10840.0000
-45.0700   10840.0000
-44.5700   10840.0000
-44.0700   10840.0000
-43.5700   10840.0000
-43.0700   10840.0000
-42.5700   10840.0000
-42.0700   10840.0000
-41.5700   10840.0000
-41.0700   10840.0000
-40.5700   10840.0000
-40.0700   10840.0000
-39.5700   10840.0000
-39.0700   10840.0000
-38.5700   10840.0000
-38.0700   10840.0000
-37.5700   10840.0000
-37.0700   10840.0000
-36.5700   10840.0000
-36.0700   10840.0000
-35.5700   10840.0000
-35.0700   10840.0000
-34.5700   10840.0000
-34.0700   10840.0000
-33.5700   10840.0000
-33.0700   10840.0000
-32.5700   10840.0000
-32.0700   10840.0000
-31.5700   10840.0000
-31.0700   10840.0000
-30.5700   10840.0000
-30.0700   10840.0000
-29.5700   10840.0000
-29.0700   10840.0000
-28.5700   10840.0000
-28.0700   10840.0000
-27.5700   10840.0000
-27.0700   10840.0000
-26.5700   10840.0000
-26.0700   10840.0000
-25.5700   10840.0000
-25.0700   10840.0000
-24.5700   10840.0000
-24.0700   10840.0000
-23.5700   10840.0000
-23.0700   10840.0000
-22.5700   10840.0000
-22.0700   10840.0000
-21.5700   10840.0000
-21.0700   10840.0000
-20.5700   10840.0000
-20.0700   10840.0000
-19.5700   10840.0000
-19.0700   10840.0000
-18.5700   10840.0000
-18.0700   10840.0000
-17.5700   10840.0000
-17.0700   10840.0000
-16.5700   10840.0000
-16.0700   10840.0000
-15.5700   10840.0000
-15.0700   10840.0000
-14.5700   10840.0000
-14.0700   10840.0000
-13.5700   10840.0000
-13.0700   10840.0000
-12.5700   10840.0000
-12.0700   10840.0000
-11.5700   10840.0000
-11.0700   10840.0000
-10.5700   10840.0000
-10.0700   10840.0000
-9.5700   10840.0000
-9.0700   10840.0000
-8.5700   10840.0000
-8.0700   10840.0000
-7.5700   10840.0000
-7.0700   10840.0000
-6.5700   10840.0000
-6.0700   10840.0000
-5.5700   10840.0000
-5.0700   10840.0000
-4.5700   10840.0000
-4.0700   10840.0000
-3.5700   10840.0000
-3.0700   10840.0000
-2.5700   10840.0000
-2.0700   10840.0000
-1.5700   10840.0000
-1.0700   10820.8193
-0.5700   10818.2240
-0.0700   10817.3011
0.4400   10815.9023
0.9500   10814.8852
1.4600   10810.9498
1.9700   10810.9733
2.4800   10805.1862
2.9900   10798.0573
3.5000   10791.7356
4.0100   10794.7018
4.5200   10793.3083
5.0300   10803.1356
5.5500   10819.1771
6.0600   10827.3770
6.5700   10831.6253
7.0800   10831.6393
7.5900   10831.9452
8.1000   10833.2136
8.6100   10833.3821
9.1200   10833.3555
9.6300   10833.7731
10.1400   10834.1180
10.6500   10833.8428
11.1600   10833.5704
11.6700   10833.4350
12.1800   10833.8550
12.6900   10834.8571
13.2000   10836.4836
13.7100   10836.9726
14.2200   10837.4025
14.7300   10838.1750
15.2400   10838.7107
15.7500   10838.3135
16.2700   10838.4615
16.7800   10838.1965
17.2900   10838.1066
17.8000   10838.7444
18.3100   10838.3885
18.8200   10838.0888
19.3300   10838.4007
19.8400   10838.9908
20.3500   10838.7677
20.8600   10839.2147
21.3700   10839.2102
21.8800   10839.3005
22.3900   10839.4026
22.9000   10839.4139
23.4100   10839.4235
23.9200   10838.9132
24.4300   10838.7083
24.9400   10837.8504
25.4500   10837.0463
25.9600   10838.2985
26.4700   10837.7143
26.9900   10836.7475
27.5000   10837.6405
28.0100   10838.2030
28.5200   10837.6181
29.0300   10836.3672
29.5400   10836.6384
30.0500   10838.0568
30.5600   10838.1032
31.0700   10838.2971
31.5800   10837.8537
32.0900   10836.8792
32.6000   10837.5236
33.1100   10838.9736
33.6200   10839.8379
34.1300   10839.5074
34.6400   10839.0711
35.1500   10839.9483
35.6600   10840.0351
36.1700   10840.3148
36.6800   10840.5339
37.1900   10839.9789
37.7100   10841.2895
38.2200   10841.6529
38.7300   10841.1924
39.2400   10842.5325
39.7500   10841.7340
40.2600   10842.3354
40.7700   10841.4235
41.2800   10839.6102
41.7900   10839.3833
42.3000   10839.8316
42.8100   10840.0374
43.3200   10840.0078
43.8300   10840.2395
44.3400   10840.6147
44.8500   10841.4933
45.3600   10842.4631
45.8700   10841.6509
46.3800   10840.8798
46.8900   10840.0803
47.4000   10840.0667
47.9100   10840.2160
48.4300   10841.3169
48.9400   10841.1750
49.4500   10840.5483
49.9600   10840.6383
50.4700   10840.4794
50.9800   10840.8761
51.4900   10840.9410
52.0000   10840.1903
52.5100   10840.9631
53.0200   10840.6756
53.5300   10841.2150
54.0400   10840.5530
54.5500   10840.8911
55.0600   10840.3036
55.5700   10840.3550
56.0800   10839.9086
56.5900   10840.2584
57.1000   10839.7684
57.6100   10840.0649
58.1200   10839.9234
58.6300   10840.6668
59.1500   10839.4867
59.6600   10839.5746
60.1700   10839.4016
60.6800   10840.1689
61.1900   10839.2029
61.7000   10840.8424
62.2100   10839.7839
62.7200   10839.1534
63.2300   10839.1181
63.7400   10839.6485
64.2500   10839.0698
64.7600   10840.5698
65.2700   10839.2172
65.7800   10839.2977
66.2900   10839.8441
66.8000   10840.0605
67.3100   10839.8072
67.8200   10839.7239
68.3300   10839.7831
68.8400   10840.5832
69.3500   10839.1935
69.8700   10840.2035
70.3800   10840.0974
70.8900   10840.6505
71.4000   10839.5590
71.9100   10839.6686
72.4200   10839.7574
72.9300   10840.0896
73.4400   10839.4801
73.9500   10839.8445
74.4600   10838.9725
74.9700   10839.0227
75.4800   10839.2199
75.9900   10840.7349
76.5000   10839.7478
77.0100   10839.3762
77.5200   10838.3286
78.0300   10838.4442
78.5400   10838.3161
79.0500   10838.2727
79.5600   10839.1909
80.0700   10840.0626
80.5900   10839.9820
81.1000   10839.2429
81.6100   10838.4730
82.1200   10838.1839
82.6300   10837.5979
83.1400   10837.7354
83.6500   10838.2979
84.1600   10837.5583
84.6700   10837.9791
85.1800   10836.2236
85.6900   10829.5770
86.2000   10817.7484
86.7100   10800.9334
87.2200   10775.5261
87.7300   10765.5768
88.2400   10756.9372
88.7500   10756.2805
89.2600   10754.0051
89.7700   10754.4564
90.2800   10780.0000
90.7900   10735.0000
91.3100   10765.0000
91.8200   10765.0000
92.3300   10791.6894
92.8400   10805.4472
93.3500   10814.9672
93.8600   10817.5192
94.3700   10818.6908
94.8800   10819.4670
95.3900   10819.4664
95.9000   10818.7803
96.4100   10817.8856
96.9200   10819.4455
97.4300   10820.3315
97.9400   10819.8690
98.4500   10820.2117
98.9600   10820.1084
99.4700   10820.2184
99.9800   10822.1493
100.4900   10821.7026
101.0000   10821.3699
101.5100   10821.0006
102.0300   10821.2867
102.5400   10820.4246
103.0500   10821.8570
103.5600   10822.0285
104.0700   10822.8035
104.5800   10821.4509
105.0900   10822.2056
105.6000   10822.2382
106.1100   10822.1040
106.6200   10821.5574
107.1300   10822.6701
107.6400   10821.9633
108.1500   10822.5822
108.6600   10822.2329
109.1700   10822.1853
109.6800   10820.8677
110.1900   10821.2067
110.7000   10820.4420
111.2100   10821.3028
111.7200   10820.6193
112.2300   10822.3994
112.7500   10821.4737
113.2600   10822.3748
113.7700   10821.4237
114.2800   10821.1903
114.7900   10820.4596
115.3000   10821.4947
115.8100   10820.9874
116.3200   10821.4142
116.8300   10819.1011
117.3400   10820.1238
117.8500   10821.5256
118.3600   10821.8337
118.8700   10821.5270
119.3800   10823.0142
119.8900   10821.1490
120.4000   10822.2617
120.9100   10822.7308
121.4200   10822.7314
121.9300   10823.7685
122.4400   10824.1428
122.9500   10823.2113
123.4700   10823.8724
123.9800   10821.6180
124.4900   10822.4365
125.0000   10822.3516
125.5100   10822.5281
126.0200   10821.3686
126.5300   10822.1053
127.0400   10822.4754
127.5500   10823.7307
128.0600   10823.8458
128.5700   10823.5860
129.0800   10823.6788
129.5900   10823.9759
130.1000   10823.9163
130.6100   10823.7939
131.1200   10822.9127
131.6300   10824.3484
132.1400   10823.7693
132.6500   10825.4929
133.1600   10824.2776
133.6700   10824.4372
134.1900   10825.6841
134.7000   10825.0243
135.2100   10824.6287
135.7200   10824.6171
136.2300   10825.8923
136.7400   10826.1601
137.2500   10825.0166
137.7600   10824.7561
138.2700   10825.5079
138.7800   10825.6201
139.2900   10823.9400
139.8000   10825.1078
140.3100   10826.2569
140.8200   10825.4491
141.3300   10823.8644
141.8400   10823.5058
142.3500   10822.9049
142.8600   10824.0568
143.3700   10824.0134
143.8800   10824.4331
144.3900   10826.1272
144.9100   10827.2083
145.4200   10827.8784
145.9300   10829.1872
146.4400   10830.0346
146.9500   10829.8787
147.4600   10827.9937
147.9700   10829.3206
148.4800   10828.4387
148.9900   10827.4055
149.5000   10827.3730
150.0100   10827.6788
150.5200   10826.9434
151.0300   10827.1328
151.5400   10826.0282
152.0500   10824.4800
152.5600   10825.1381
153.0700   10826.2348
153.5800   10824.2043
154.0900   10823.6267
154.6000   10823.9272
155.1100   10825.5279
155.6300   10826.5341
156.1400   10825.5882
156.6500   10824.3842
157.1600   10824.3714
157.6700   10823.6470
158.1800   10824.0005
158.6900   10822.8629
159.2000   10823.1822
159.7100   10824.9178
160.2200   10824.9400
160.7300   10823.2114
161.2400   10823.3227
161.7500   10824.4414
162.2600   10823.7962
162.7700   10824.4776
163.2800   10824.7300
163.7900   10824.7228
164.3000   10825.0784
164.8100   10824.9065
165.3200   10823.6785
165.8300   10824.0170
166.3500   10824.5084
166.8600   10823.6996
167.3700   10822.4562
167.8800   10822.7165
168.3900   10824.2245
168.9000   10824.1919
169.4100   10823.8703
169.9200   10824.9960
170.4300   10824.7126
170.9400   10825.2354
171.4500   10823.3494
171.9600   10823.6810
172.4700   10825.4763
172.9800   10826.2165
173.4900   10824.9153
174.0000   10824.7180
174.5100   10824.5243
175.0200   10824.6544
175.5300   10824.2446
176.0400   10825.1262
176.5500   10823.8004
177.0700   10823.8043
177.5800   10822.4305
178.0900   10822.5524
178.6000   10824.2698
179.1100   10824.5034
179.6200   10823.4294
180.1300   10823.5942
180.6400   10822.6328
181.1500   10823.9782
181.6600   10824.6632
182.1700   10825.1851
182.6800   10823.4075
183.1900   10824.5768
183.7000   10824.7611
184.2100   10825.7790
184.7200   10822.8047
185.2300   10824.2775
185.7400   10824.7189
186.2500   10823.5645
186.7600   10823.3891
187.2700   10824.5430
187.7900   10823.3524
188.3000   10823.6410
188.8100   10824.1637
189.3200   10825.1336
189.8300   10823.8425
190.3400   10824.7258
190.8500   10823.4885
191.3600   10824.2341
191.8700   10823.4518
192.3800   10822.7477
192.8900   10823.8887
193.4000   10824.2887
193.9100   10823.3050
194.4200   10823.9912
194.9300   10821.9410
195.4400   10823.5049
195.9500   10823.8654
196.4600   10824.9983
196.9700   10824.8928
197.4800   10824.4161
197.9900   10823.4422
198.5100   10822.4317
199.0200   10823.9625
199.5300   10823.9883
200.0400   10823.7179
200.5500   10825.1749
201.0600   10824.4613
201.5700   10825.5683
202.0800   10823.4275
202.5900   10822.5204
203.1000   10823.4856
203.6100   10823.6529
204.1200   10824.4747
204.6300   10824.3357
205.1400   10823.6745
205.6500   10822.9516
206.1600   10825.1660
206.6700   10825.8640
207.1800   10825.9239
207.6900   10825.0550
208.2000   10825.6576
208.7100   10824.8546
209.2300   10824.4832
209.7400   10824.6643
210.2500   10824.2785
210.7600   10822.8211
211.2700   10823.2079
211.7800   10824.1754
212.2900   10824.2966
212.8000   10824.5868
213.3100   10824.2721
213.8200   10824.3755
214.3300   10824.3609
214.8400   10823.8831
215.3500   10823.6408
215.8600   10824.9091
216.3700   10825.0774
216.8800   10823.9625
217.3900   10824.0864
217.9000   10824.3529
218.4100   10824.0074
218.9200   10823.7537
219.4300   10824.4012
219.9500   10823.8253
220.4600   10824.9012
220.9700   10825.5791
221.4800   10824.3180
221.9900   10822.9545
222.5000   10823.4099
223.0100   10824.7847
223.5200   10825.3867
224.0300   10823.6884
224.5400   10825.5704
225.0500   10825.4457
225.5600   10826.0851
226.0700   10825.5084
226.5800   10825.5041
227.0900   10825.2797
227.6000   10825.5622
228.1100   10824.6703
228.6200   10824.2935
229.1300   10822.4940
229.6400   10821.9833
230.1500   10820.9713
230.6700   10822.9918
231.1800   10822.5795
231.6900   10822.0087
232.2000   10821.2860
232.7100   10823.2810
233.2200   10822.1142
233.7300   10823.9209
234.2400   10824.6680
234.7500   10823.0947
235.2600   10822.0006
235.7700   10823.1954
236.2800   10822.6463
236.7900   10823.8322
237.3000   10823.1702
237.8100   10824.8315
238.3200   10823.1002
238.8300   10823.7123
239.3400   10822.8113
239.8500   10824.4570
240.3600   10825.4903
240.8700   10825.4343
241.3900   10822.7733
241.9000   10824.0118
242.4100   10824.2404
242.9200   10824.7843
243.4300   10823.9048
243.9400   10824.9188
244.4500   10823.3486
244.9600   10824.9844
245.4700   10823.5043
245.9800   10824.8391
246.4900   10822.5048
247.0000   10823.9820
247.5100   10824.4214
248.0200   10824.5614
248.5300   10824.3703
249.0400   10825.0633
249.5500   10825.0588
250.0600   10825.1303
250.5700   10824.5465
251.0800   10824.5790
251.5900   10823.4050
252.1100   10823.6808
252.6200   10824.1072
253.1300   10825.0464
253.6400   10823.4980
254.1500   10823.6053
254.6600   10824.3289
255.1700   10824.7086
255.6800   10825.1940
256.1900   10825.3765
256.7000   10824.3698
257.2100   10824.2727
257.7200   10823.0101
258.2300   10823.6661
258.7400   10823.1344
259.2500   10823.0898
259.7600   10823.7302
260.2700   10824.5744
260.7800   10823.5415
261.2900   10824.4006
261.8000   10824.9579
262.3100   10824.9554
262.8300   10825.0220
263.3400   10824.8201
263.8500   10824.3903
264.3600   10825.3299
264.8700   10825.0396
265.3800   10825.6087
265.8900   10825.2519
266.4000   10825.1912
266.9100   10825.8684
267.4200   10827.1179
267.9300   10825.8527
268.4400   10824.6056
268.9500   10824.3486
269.4600   10825.8857
269.9700   10825.4364
270.4800   10825.5461
270.9900   10825.1654
271.5000   10826.3417
272.0100   10825.9385
272.5200   10824.8487
273.0300   10826.3598
273.5500   10826.0811
274.0600   10823.6059
274.5700   10824.1526
275.0800   10823.7634
275.5900   10823.1109
276.1000   10823.5623
276.6100   10824.5063
277.1200   10824.8812
277.6300   10825.7852
278.1400   10825.7374
278.6500   10825.7357
279.1600   10825.1856
279.6700   10824.1655
280.1800   10823.8509
280.6900   10824.2117
281.2000   10824.0663
281.7100   10825.6832
282.2200   10826.4545
282.7300   10824.4013
283.2400   10824.1677
283.7500   10823.9937
284.2700   10824.8664
284.7800   10825.4443
285.2900   10824.9667
285.8000   10825.4764
286.3100   10825.5970
286.8200   10823.3465
287.3300   10823.9169
287.8400   10823.0275
288.3500   10823.9541
288.8600   10823.2812
289.3700   10824.0627
289.8800   10823.3610
290.3900   10823.8716
290.9000   10822.3836
291.4100   10823.1024
291.9200   10822.2071
292.4300   10824.0073
292.9400   10824.4851
293.4500   10823.6629
293.9600   10823.8602
294.4700   10824.8926
294.9900   10825.8318
295.5000   10825.5702
296.0100   10825.6503
296.5200   10825.5962
297.0300   10824.8002
297.5400   10825.0067
298.0500   10825.0607
298.5600   10824.0759
299.0700   10825.0174
299.5800   10826.5839
300.0900   10826.6069
300.6000   10826.0659
301.1100   10826.4553
301.6200   10824.8749
302.1300   10823.3168
302.6400   10823.4485
303.1500   10823.7230
303.6600   10824.5762
304.1700   10823.8952
304.6800   10824.5443
305.1900   10825.4099
305.7100   10826.4398
306.2200   10825.7602
306.7300   10825.6069
307.2400   10824.4409
307.7500   10826.5217
308.2600   10825.8104
308.7700   10825.4407
309.2800   10825.0199
309.7900   10824.7002
310.3000   10823.2829
310.8100   10822.7881
311.3200   10823.2422
