#----------------------------------
# BOTDR
# DSTS: v.07.1
# Wed Sep 29 12:34:16 2021
#
# Channel No  = 3
# Partial   = 0
# Partial Start  = 0.00
# Partial End  = 70147.23
# Fibre Length    [m]   = 70147.23  0.00
# Fiber Delay    [m]   = 147.23
# Connection Point    [m]   = 227.32
# Rpt.period      [us]  = 711
# Pulse width     [ns]  = 1000
# Frequency Start [MHz] = 10690.00
# Frequency End:  [MHz] = 10990.00
# Frequency Step: [MHz] = 5.00
# No.Averages:    [-]   = 12000
# Sampling Rate   [-]   = 6 (3.13MSs, spatial step = 32.00m)
# Input Range     [-]   = 2 (1V)
# Pulse Delay     [m]   = 100
# Post Pulse Data [m]   = 0
# Fiber Type      [-]   = CH4 Land
# Fiber  temperature [C] = 27.00
# Fiber  Bril Frequency  [MHz] = 10840.00
# Fiber  Strain Coefficient  [ue/MHz] = 18.9150
# Fiber Temperature Coefficient [C/MHz] = 0.9765
# Fiber Refractive Index = 1.4682
# Fiber Sigma = 0.2000
#
#----------------------------------
2D Baseline
2149

-147.2300   10840.0000
-115.2300   10840.0000
-83.2300   10840.0000
-51.2300   10840.0000
-19.2300   10925.0000
12.7700   10930.0000
45.4400   10930.0000
78.1100   10925.0000
110.7800   10925.0000
143.4500   10930.0000
176.1200   10930.0000
208.7900   10930.0000
241.4600   10930.0000
274.1300   10925.0000
306.8000   10925.0000
339.4700   10925.0000
372.1500   10930.0000
404.8200   10925.0000
437.4900   10925.0000
470.1600   10925.0000
502.8300   10930.0000
535.5000   10925.0000
568.1700   10930.0000
600.8400   10930.0000
633.5100   10930.0000
666.1800   10930.0000
698.8500   10930.0000
731.5200   10930.0000
764.1900   10930.0000
796.8600   10930.0000
829.5300   10930.0000
862.2000   10930.0000
894.8700   10930.0000
927.5400   10930.0000
960.2100   10930.0000
992.8800   10930.0000
1025.5500   10925.0000
1058.2300   10930.0000
1090.9000   10930.0000
1123.5700   10925.0000
1156.2400   10925.0000
1188.9100   10925.0000
1221.5800   10925.0000
1254.2500   10925.0000
1286.9200   10690.0000
1319.5900   10690.0000
1352.2600   10705.0000
1384.9300   10705.0000
1417.6000   10705.0000
1450.2700   10715.0000
1482.9400   10712.9904
1515.6100   10712.6191
1548.2800   10712.6766
1580.9500   10863.8626
1613.6200   10862.2520
1646.2900   10859.4110
1678.9600   10856.3527
1711.6300   10854.8787
1744.3100   10853.4394
1776.9800   10852.9001
1809.6500   10852.8661
1842.3200   10853.1112
1874.9900   10853.0569
1907.6600   10852.9541
1940.3300   10852.4014
1973.0000   10851.8458
2005.6700   10850.8974
2038.3400   10850.1679
2071.0100   10849.5460
2103.6800   10848.8211
2136.3500   10848.1214
2169.0200   10846.4212
2201.6900   10845.7167
2234.3600   10845.1197
2267.0300   10845.1646
2299.7000   10845.6565
2332.3700   10846.7846
2365.0400   10847.7385
2397.7100   10847.2679
2430.3900   10845.5879
2463.0600   10843.7148
2495.7300   10844.2408
2528.4000   10845.3281
2561.0700   10846.0551
2593.7400   10846.1850
2626.4100   10844.3061
2659.0800   10840.0172
2691.7500   10828.9737
2724.4200   10815.3852
2757.0900   10811.9641
2789.7600   10811.5563
2822.4300   10811.8144
2855.1000   10812.3055
2887.7700   10813.7102
2920.4400   10814.2034
2953.1100   10813.5376
2985.7800   10812.3825
3018.4500   10811.3224
3051.1200   10811.0179
3083.7900   10811.2962
3116.4700   10811.0743
3149.1400   10810.8576
3181.8100   10810.3907
3214.4800   10810.0848
3247.1500   10809.5686
3279.8200   10809.1719
3312.4900   10809.3041
3345.1600   10809.3256
3377.8300   10809.8482
3410.5000   10809.6995
3443.1700   10809.9271
3475.8400   10809.4218
3508.5100   10809.3506
3541.1800   10808.2965
3573.8500   10808.9116
3606.5200   10809.1350
3639.1900   10809.3782
3671.8600   10809.5030
3704.5300   10809.7555
3737.2000   10809.9446
3769.8700   10809.9128
3802.5500   10808.7484
3835.2200   10807.9034
3867.8900   10807.8255
3900.5600   10808.4343
3933.2300   10808.5831
3965.9000   10808.4099
3998.5700   10808.3984
4031.2400   10808.7265
4063.9100   10808.8767
4096.5800   10808.8180
4129.2500   10808.7689
4161.9200   10808.8198
4194.5900   10808.7676
4227.2600   10808.8391
4259.9300   10808.7899
4292.6000   10808.6813
4325.2700   10808.8207
4357.9400   10808.7267
4390.6100   10808.7040
4423.2800   10808.6682
4455.9500   10808.6834
4488.6300   10808.4872
4521.3000   10808.1105
4553.9700   10807.3083
4586.6400   10807.0368
4619.3100   10807.4051
4651.9800   10807.3940
4684.6500   10807.5553
4717.3200   10808.1114
4749.9900   10808.2824
4782.6600   10808.5704
4815.3300   10808.3944
4848.0000   10808.1031
4880.6700   10808.1279
4913.3400   10808.2086
4946.0100   10808.3146
4978.6800   10808.2110
5011.3500   10808.1047
5044.0200   10807.9131
5076.6900   10807.7080
5109.3600   10807.6960
5142.0300   10807.6622
5174.7100   10807.7809
5207.3800   10807.7724
5240.0500   10807.9344
5272.7200   10807.9188
5305.3900   10807.4011
5338.0600   10807.4492
5370.7300   10807.8113
5403.4000   10807.7276
5436.0700   10807.2572
5468.7400   10806.5269
5501.4100   10806.6880
5534.0800   10806.8017
5566.7500   10807.1466
5599.4200   10807.1592
5632.0900   10807.4857
5664.7600   10807.9077
5697.4300   10807.6534
5730.1000   10806.8002
5762.7700   10806.7985
5795.4400   10806.9684
5828.1100   10807.2244
5860.7900   10807.1148
5893.4600   10807.1000
5926.1300   10806.1074
5958.8000   10805.9467
5991.4700   10806.4384
6024.1400   10807.0153
6056.8100   10807.3833
6089.4800   10807.6255
6122.1500   10807.2632
6154.8200   10807.4400
6187.4900   10807.7556
6220.1600   10808.1125
6252.8300   10807.8505
6285.5000   10807.4845
6318.1700   10807.2707
6350.8400   10807.2258
6383.5100   10807.1458
6416.1800   10807.2358
6448.8500   10807.0005
6481.5200   10807.0962
6514.1900   10807.2368
6546.8700   10807.3446
6579.5400   10807.0836
6612.2100   10806.6758
6644.8800   10806.6214
6677.5500   10806.9783
6710.2200   10808.0118
6742.8900   10808.2602
6775.5600   10808.2818
6808.2300   10807.8834
6840.9000   10807.4485
6873.5700   10807.9383
6906.2400   10807.8838
6938.9100   10808.0107
6971.5800   10807.9090
7004.2500   10807.9369
7036.9200   10807.9537
7069.5900   10808.1879
7102.2600   10808.4722
7134.9300   10808.6720
7167.6000   10808.6182
7200.2700   10808.4877
7232.9500   10808.4874
7265.6200   10808.5243
7298.2900   10807.9382
7330.9600   10807.7459
7363.6300   10807.7027
7396.3000   10808.0404
7428.9700   10808.1873
7461.6400   10808.1424
7494.3100   10808.0238
7526.9800   10808.2750
7559.6500   10808.8717
7592.3200   10809.1337
7624.9900   10809.3845
7657.6600   10808.9695
7690.3300   10809.0654
7723.0000   10808.8805
7755.6700   10809.1670
7788.3400   10809.3319
7821.0100   10809.1503
7853.6800   10808.8275
7886.3500   10808.5407
7919.0300   10808.4391
7951.7000   10808.1637
7984.3700   10808.2310
8017.0400   10808.4392
8049.7100   10808.4905
8082.3800   10808.5802
8115.0500   10808.3702
8147.7200   10808.0085
8180.3900   10808.2204
8213.0600   10808.4287
8245.7300   10808.8964
8278.4000   10808.9826
8311.0700   10809.1244
8343.7400   10808.7206
8376.4100   10808.7526
8409.0800   10808.3383
8441.7500   10808.3457
8474.4200   10808.3637
8507.0900   10808.4412
8539.7600   10808.8410
8572.4300   10808.8867
8605.1100   10808.7666
8637.7800   10808.8164
8670.4500   10808.8361
8703.1200   10808.7942
8735.7900   10808.8160
8768.4600   10809.3466
8801.1300   10809.1337
8833.8000   10808.7529
8866.4700   10808.3130
8899.1400   10808.6611
8931.8100   10808.5485
8964.4800   10809.2086
8997.1500   10809.7376
9029.8200   10810.0440
9062.4900   10809.6758
9095.1600   10810.0122
9127.8300   10810.0879
9160.5000   10809.7334
9193.1700   10809.5415
9225.8400   10809.6776
9258.5100   10809.6520
9291.1900   10809.6183
9323.8600   10809.4133
9356.5300   10809.6450
9389.2000   10809.6743
9421.8700   10809.9645
9454.5400   10809.9879
9487.2100   10809.8731
9519.8800   10809.0492
9552.5500   10808.8918
9585.2200   10809.0881
9617.8900   10809.0833
9650.5600   10808.8874
9683.2300   10808.8967
9715.9000   10808.8623
9748.5700   10809.4352
9781.2400   10809.4351
9813.9100   10809.3542
9846.5800   10808.9648
9879.2500   10809.2312
9911.9200   10809.0567
9944.5900   10808.9604
9977.2700   10808.7667
10009.9400   10808.6983
10042.6100   10808.8737
10075.2800   10809.3071
10107.9500   10809.5692
10140.6200   10809.2969
10173.2900   10809.3668
10205.9600   10809.2903
10238.6300   10808.9363
10271.3000   10809.0763
10303.9700   10809.1386
10336.6400   10809.4020
10369.3100   10809.1978
10401.9800   10809.4552
10434.6500   10808.8555
10467.3200   10808.9539
10499.9900   10808.8950
10532.6600   10808.9696
10565.3300   10809.3197
10598.0000   10809.3944
10630.6700   10809.1718
10663.3500   10809.1210
10696.0200   10808.3718
10728.6900   10808.7546
10761.3600   10809.0532
10794.0300   10809.1431
10826.7000   10808.9847
10859.3700   10809.3326
10892.0400   10809.4150
10924.7100   10809.1410
10957.3800   10809.4204
10990.0500   10809.1254
11022.7200   10808.6699
11055.3900   10809.4321
11088.0600   10809.4640
11120.7300   10809.5106
11153.4000   10809.8062
11186.0700   10809.6575
11218.7400   10809.7443
11251.4100   10809.8086
11284.0800   10809.6135
11316.7500   10809.2460
11349.4300   10808.9457
11382.1000   10808.9363
11414.7700   10809.2823
11447.4400   10809.2615
11480.1100   10808.9792
11512.7800   10808.7254
11545.4500   10808.5883
11578.1200   10808.4560
11610.7900   10808.3187
11643.4600   10808.5454
11676.1300   10809.0038
11708.8000   10809.2241
11741.4700   10809.4824
11774.1400   10809.5279
11806.8100   10809.6222
11839.4800   10809.5328
11872.1500   10809.4447
11904.8200   10809.4332
11937.4900   10808.6627
11970.1600   10807.9625
12002.8300   10808.0620
12035.5100   10808.5223
12068.1800   10808.9889
12100.8500   10808.9932
12133.5200   10808.8085
12166.1900   10808.6977
12198.8600   10808.8254
12231.5300   10808.6953
12264.2000   10808.2184
12296.8700   10808.4163
12329.5400   10808.4349
12362.2100   10808.4623
12394.8800   10807.8164
12427.5500   10807.3700
12460.2200   10807.5341
12492.8900   10808.2362
12525.5600   10808.9691
12558.2300   10809.5469
12590.9000   10809.1071
12623.5700   10808.8734
12656.2400   10808.8406
12688.9100   10808.2945
12721.5900   10807.8146
12754.2600   10807.8972
12786.9300   10808.2673
12819.6000   10808.6145
12852.2700   10808.8639
12884.9400   10808.8272
12917.6100   10808.4210
12950.2800   10808.6955
12982.9500   10809.3533
13015.6200   10809.2851
13048.2900   10809.2278
13080.9600   10808.3661
13113.6300   10808.5388
13146.3000   10808.7809
13178.9700   10809.2923
13211.6400   10809.0382
13244.3100   10808.6970
13276.9800   10808.6657
13309.6500   10808.3015
13342.3200   10808.0309
13374.9900   10807.8552
13407.6700   10808.3128
13440.3400   10808.4817
13473.0100   10808.6399
13505.6800   10808.5684
13538.3500   10808.4006
13571.0200   10808.3601
13603.6900   10808.4524
13636.3600   10808.2792
13669.0300   10808.2417
13701.7000   10808.2741
13734.3700   10808.1947
13767.0400   10808.1965
13799.7100   10808.1319
13832.3800   10808.2215
13865.0500   10808.3619
13897.7200   10808.4552
13930.3900   10808.2375
13963.0600   10807.9197
13995.7300   10807.1892
14028.4000   10807.4216
14061.0700   10807.5659
14093.7500   10808.0363
14126.4200   10808.4359
14159.0900   10808.3126
14191.7600   10808.6421
14224.4300   10808.2778
14257.1000   10808.0054
14289.7700   10807.9069
14322.4400   10807.7511
14355.1100   10807.8991
14387.7800   10807.6326
14420.4500   10807.3867
14453.1200   10807.5925
14485.7900   10807.6152
14518.4600   10807.1693
14551.1300   10806.6119
14583.8000   10806.3683
14616.4700   10806.6841
14649.1400   10806.6365
14681.8100   10807.2639
14714.4800   10807.2386
14747.1500   10807.4540
14779.8300   10807.1875
14812.5000   10806.9079
14845.1700   10807.3174
14877.8400   10807.4052
14910.5100   10807.7630
14943.1800   10807.6072
14975.8500   10807.3221
15008.5200   10807.1212
15041.1900   10807.1313
15073.8600   10807.6989
15106.5300   10807.5201
15139.2000   10807.4809
15171.8700   10807.8391
15204.5400   10808.2797
15237.2100   10808.5619
15269.8800   10808.6948
15302.5500   10807.7976
15335.2200   10807.2121
15367.8900   10807.0922
15400.5600   10806.7452
15433.2300   10807.0437
15465.9100   10807.1462
15498.5800   10807.4448
15531.2500   10807.4223
15563.9200   10807.1292
15596.5900   10807.3501
15629.2600   10807.3589
15661.9300   10807.7647
15694.6000   10807.9583
15727.2700   10807.8030
15759.9400   10807.1828
15792.6100   10806.7334
15825.2800   10806.4505
15857.9500   10806.3138
15890.6200   10806.3548
15923.2900   10806.4504
15955.9600   10807.0991
15988.6300   10807.4114
16021.3000   10808.1787
16053.9700   10808.2129
16086.6400   10807.6006
16119.3100   10807.0204
16151.9900   10806.7361
16184.6600   10806.7076
16217.3300   10806.8481
16250.0000   10807.4686
16282.6700   10807.5365
16315.3400   10807.2963
16348.0100   10807.1169
16380.6800   10807.1374
16413.3500   10807.3917
16446.0200   10807.2280
16478.6900   10807.8549
16511.3600   10807.2970
16544.0300   10807.2044
16576.7000   10806.7930
16609.3700   10807.1910
16642.0400   10807.1371
16674.7100   10807.2054
16707.3800   10807.6503
16740.0500   10807.9856
16772.7200   10808.1805
16805.3900   10808.0055
16838.0700   10808.0408
16870.7400   10807.5386
16903.4100   10807.3262
16936.0800   10807.7441
16968.7500   10807.5319
17001.4200   10807.2069
17034.0900   10807.1876
17066.7600   10807.0980
17099.4300   10807.2352
17132.1000   10807.4933
17164.7700   10807.2825
17197.4400   10807.3379
17230.1100   10807.5263
17262.7800   10807.5792
17295.4500   10807.6616
17328.1200   10807.5218
17360.7900   10807.9223
17393.4600   10807.6992
17426.1300   10808.1366
17458.8000   10807.9900
17491.4700   10807.4035
17524.1500   10807.7019
17556.8200   10808.2525
17589.4900   10807.1390
17622.1600   10807.1301
17654.8300   10807.7534
17687.5000   10807.6659
17720.1700   10807.7102
17752.8400   10807.4583
17785.5100   10807.6225
17818.1800   10807.5057
17850.8500   10807.1998
17883.5200   10807.4457
17916.1900   10807.3715
17948.8600   10807.3437
17981.5300   10807.8571
18014.2000   10807.4108
18046.8700   10807.1878
18079.5400   10807.2928
18112.2100   10807.5034
18144.8800   10807.6418
18177.5500   10807.3909
18210.2300   10807.1319
18242.9000   10807.3614
18275.5700   10807.8119
18308.2400   10808.1608
18340.9100   10808.5806
18373.5800   10807.9524
18406.2500   10808.0423
18438.9200   10807.8123
18471.5900   10807.9758
18504.2600   10807.5727
18536.9300   10807.3636
18569.6000   10807.6078
18602.2700   10807.8619
18634.9400   10808.2788
18667.6100   10808.6538
18700.2800   10808.3192
18732.9500   10808.0843
18765.6200   10808.3901
18798.2900   10808.7557
18830.9600   10807.5816
18863.6300   10807.6560
18896.3100   10807.7086
18928.9800   10807.7216
18961.6500   10807.9330
18994.3200   10808.0622
19026.9900   10807.6651
19059.6600   10807.9812
19092.3300   10807.4439
19125.0000   10807.0822
19157.6700   10806.7728
19190.3400   10806.7377
19223.0100   10806.8647
19255.6800   10806.8341
19288.3500   10807.7871
19321.0200   10808.1994
19353.6900   10808.3491
19386.3600   10808.0389
19419.0300   10808.3314
19451.7000   10808.7931
19484.3700   10807.7615
19517.0400   10807.8580
19549.7100   10808.1053
19582.3900   10808.1883
19615.0600   10808.2214
19647.7300   10808.0838
19680.4000   10808.0445
19713.0700   10807.9174
19745.7400   10809.0496
19778.4100   10809.5292
19811.0800   10809.0534
19843.7500   10808.2904
19876.4200   10808.3474
19909.0900   10808.2142
19941.7600   10808.1187
19974.4300   10807.4383
20007.1000   10807.2660
20039.7700   10807.7824
20072.4400   10807.8450
20105.1100   10807.7719
20137.7800   10808.0624
20170.4500   10808.3734
20203.1200   10807.9294
20235.7900   10808.1601
20268.4700   10807.7572
20301.1400   10807.9361
20333.8100   10807.7683
20366.4800   10807.8508
20399.1500   10807.5572
20431.8200   10807.9950
20464.4900   10807.9132
20497.1600   10807.9994
20529.8300   10808.3114
20562.5000   10808.5345
20595.1700   10808.6464
20627.8400   10808.1580
20660.5100   10808.4274
20693.1800   10808.1282
20725.8500   10807.5182
20758.5200   10808.0010
20791.1900   10808.0959
20823.8600   10808.5285
20856.5300   10808.5167
20889.2000   10808.4909
20921.8700   10808.3323
20954.5500   10808.5541
20987.2200   10808.5040
21019.8900   10808.3061
21052.5600   10808.2254
21085.2300   10807.7207
21117.9000   10807.6174
21150.5700   10807.9502
21183.2400   10807.9353
21215.9100   10808.0587
21248.5800   10808.1653
21281.2500   10807.8852
21313.9200   10807.9494
21346.5900   10807.8504
21379.2600   10807.8407
21411.9300   10807.7955
21444.6000   10808.3577
21477.2700   10808.2079
21509.9400   10808.4268
21542.6100   10807.8920
21575.2800   10807.8168
21607.9500   10807.5189
21640.6300   10807.7397
21673.3000   10807.5876
21705.9700   10807.5747
21738.6400   10808.3572
21771.3100   10808.1490
21803.9800   10807.4465
21836.6500   10807.7922
21869.3200   10807.7042
21901.9900   10808.1739
21934.6600   10808.3530
21967.3300   10807.8933
22000.0000   10807.8077
22032.6700   10807.9181
22065.3400   10808.0225
22098.0100   10807.2413
22130.6800   10807.5689
22163.3500   10807.3071
22196.0200   10807.6511
22228.6900   10807.4100
22261.3600   10807.5683
22294.0300   10807.6219
22326.7100   10807.8280
22359.3800   10807.4377
22392.0500   10808.4626
22424.7200   10808.4934
22457.3900   10808.2661
22490.0600   10807.5200
22522.7300   10807.1763
22555.4000   10806.5043
22588.0700   10807.2298
22620.7400   10807.3115
22653.4100   10807.8908
22686.0800   10807.6128
22718.7500   10807.5889
22751.4200   10808.0001
22784.0900   10808.1064
22816.7600   10808.4560
22849.4300   10808.1820
22882.1000   10808.2264
22914.7700   10807.9811
22947.4400   10807.8691
22980.1100   10807.6630
23012.7900   10807.8968
23045.4600   10807.7300
23078.1300   10807.8969
23110.8000   10807.7479
23143.4700   10807.5429
23176.1400   10807.8716
23208.8100   10807.6874
23241.4800   10807.8848
23274.1500   10807.8761
23306.8200   10807.6095
23339.4900   10807.4434
23372.1600   10807.8614
23404.8300   10807.1063
23437.5000   10807.4446
23470.1700   10807.8933
23502.8400   10807.9741
23535.5100   10808.8930
23568.1800   10808.2377
23600.8500   10808.2926
23633.5200   10808.1645
23666.1900   10808.9554
23698.8700   10809.1469
23731.5400   10808.4138
23764.2100   10807.8976
23796.8800   10807.6881
23829.5500   10808.1671
23862.2200   10807.8947
23894.8900   10807.9196
23927.5600   10808.1771
23960.2300   10807.1111
23992.9000   10807.8380
24025.5700   10807.5291
24058.2400   10807.7677
24090.9100   10807.7712
24123.5800   10807.0858
24156.2500   10807.4597
24188.9200   10807.1700
24221.5900   10807.3065
24254.2600   10807.7306
24286.9300   10807.6540
24319.6000   10807.9514
24352.2700   10807.7881
24384.9500   10807.5076
24417.6200   10807.4406
24450.2900   10807.5065
24482.9600   10808.0113
24515.6300   10807.8599
24548.3000   10808.1502
24580.9700   10808.1975
24613.6400   10807.9137
24646.3100   10808.3669
24678.9800   10808.3335
24711.6500   10808.0551
24744.3200   10808.1119
24776.9900   10808.2783
24809.6600   10808.4325
24842.3300   10807.9825
24875.0000   10808.3798
24907.6700   10808.3091
24940.3400   10808.2166
24973.0100   10807.8907
25005.6800   10808.1850
25038.3500   10807.7433
25071.0300   10808.2624
25103.7000   10808.1007
