#----------------------------------
# BOTDR
# DSTS: v.07.1
# Wed Sep 29 12:25:19 2021
#
# Channel No  = 2
# Partial   = 0
# Partial Start  = 0.00
# Partial End  = 5118.55
# Fibre Length    [m]   = 5118.55  0.00
# Fiber Delay    [m]   = 118.55
# Connection Point    [m]   = 198.64
# Rpt.period      [us]  = 65
# Pulse width     [ns]  = 40
# Frequency Start [MHz] = 10690.00
# Frequency End:  [MHz] = 10990.00
# Frequency Step: [MHz] = 5.00
# No.Averages:    [-]   = 12000
# Sampling Rate   [-]   = 2 (50.00MSs, spatial step = 2.00m)
# Input Range     [-]   = 2 (1V)
# Pulse Delay     [m]   = 100
# Post Pulse Data [m]   = 0
# Fiber Type      [-]   = CH4 Land
# Fiber  temperature [C] = 30.00
# Fiber  Bril Frequency  [MHz] = 10840.00
# Fiber  Strain Coefficient  [ue/MHz] = 18.9150
# Fiber Temperature Coefficient [C/MHz] = 0.9765
# Fiber Refractive Index = 1.4682
# Fiber Sigma = 0.2000
#
#----------------------------------
2D Baseline
2509

-118.5500   10840.0000
-116.5500   10840.0000
-114.5500   10840.0000
-112.5500   10840.0000
-110.5500   10840.0000
-108.5500   10840.0000
-106.5500   10840.0000
-104.5500   10840.0000
-102.5500   10840.0000
-100.5500   10840.0000
-98.5500   10840.0000
-96.5500   10840.0000
-94.5500   10840.0000
-92.5500   10840.0000
-90.5500   10840.0000
-88.5500   10840.0000
-86.5500   10840.0000
-84.5500   10840.0000
-82.5500   10840.0000
-80.5500   10840.0000
-78.5500   10840.0000
-76.5500   10840.0000
-74.5500   10840.0000
-72.5500   10840.0000
-70.5500   10840.0000
-68.5500   10840.0000
-66.5500   10840.0000
-64.5500   10840.0000
-62.5500   10840.0000
-60.5500   10840.0000
-58.5500   10840.0000
-56.5500   10840.0000
-54.5500   10840.0000
-52.5500   10840.0000
-50.5500   10840.0000
-48.5500   10840.0000
-46.5500   10840.0000
-44.5500   10840.0000
-42.5500   10840.0000
-40.5500   10840.0000
-38.5500   10840.0000
-36.5500   10840.0000
-34.5500   10840.0000
-32.5500   10840.0000
-30.5500   10840.0000
-28.5500   10840.0000
-26.5500   10840.0000
-24.5500   10840.0000
-22.5500   10840.0000
-20.5500   10840.0000
-18.5500   10840.0000
-16.5500   10840.0000
-14.5500   10840.0000
-12.5500   10840.0000
-10.5500   10840.0000
-8.5500   10840.0000
-6.5500   10840.0000
-4.5500   10840.0000
-2.5500   10820.3947
-0.5500   10820.9425
1.4900   10816.3095
3.5300   10774.3226
5.5800   10762.8612
7.6200   10783.8959
9.6600   10815.1553
11.7000   10816.4250
13.7400   10816.6369
15.7900   10817.1077
17.8300   10817.6264
19.8700   10817.4768
21.9100   10817.1873
23.9500   10817.1478
25.9900   10817.2730
28.0400   10817.2384
30.0800   10817.1881
32.1200   10817.6931
34.1600   10818.0757
36.2000   10818.3613
38.2500   10818.6896
40.2900   10818.7007
42.3300   10818.8552
44.3700   10819.3373
46.4100   10819.8777
48.4600   10820.9630
50.5000   10821.5088
52.5400   10820.7946
54.5800   10820.3874
56.6200   10819.9506
58.6700   10820.9472
60.7100   10823.5234
62.7500   10825.4077
64.7900   10825.7849
66.8300   10824.8790
68.8700   10823.1472
70.9200   10822.4884
72.9600   10822.6710
75.0000   10822.3717
77.0400   10821.9919
79.0800   10822.1139
81.1300   10822.2087
83.1700   10822.6773
85.2100   10824.2983
87.2500   10827.0152
89.2900   10830.1325
91.3400   10831.9049
93.3800   10832.6280
95.4200   10833.1470
97.4600   10833.3371
99.5000   10833.3850
101.5500   10833.2997
103.5900   10832.7411
105.6300   10832.4767
107.6700   10832.3005
109.7100   10832.4932
111.7500   10832.6156
113.8000   10832.6091
115.8400   10832.1853
117.8800   10832.0280
119.9200   10832.0865
121.9600   10831.8819
124.0100   10831.6490
126.0500   10831.5048
128.0900   10831.3949
130.1300   10831.2952
132.1700   10831.6701
134.2200   10832.4497
136.2600   10832.0009
138.3000   10831.1339
140.3400   10830.7928
142.3800   10831.3927
144.4300   10831.7192
146.4700   10831.0670
148.5100   10830.8455
150.5500   10829.8232
152.5900   10828.4045
154.6300   10827.2735
156.6800   10828.2311
158.7200   10829.4892
160.7600   10828.3879
162.8000   10826.5938
164.8400   10827.2373
166.8900   10829.2601
168.9300   10831.0473
170.9700   10830.9060
173.0100   10828.0063
175.0500   10824.7970
177.1000   10824.3851
179.1400   10826.6586
181.1800   10829.7578
183.2200   10830.7018
185.2600   10829.0513
187.3100   10827.9144
189.3500   10829.3843
191.3900   10829.4726
193.4300   10827.6385
195.4700   10826.5993
197.5100   10827.9348
199.5600   10829.7962
201.6000   10830.2471
203.6400   10828.5738
205.6800   10828.4375
207.7200   10830.8088
209.7700   10832.2858
211.8100   10832.8542
213.8500   10833.0766
215.8900   10832.8148
217.9300   10833.3129
219.9800   10833.5135
222.0200   10833.5941
224.0600   10833.5158
226.1000   10832.5933
228.1400   10830.8787
230.1900   10830.2268
232.2300   10831.5019
234.2700   10832.4951
236.3100   10832.8332
238.3500   10832.7560
240.3900   10832.4541
242.4400   10832.1396
244.4800   10832.5573
246.5200   10832.7703
248.5600   10832.8612
250.6000   10832.3019
252.6500   10830.3698
254.6900   10829.5667
256.7300   10831.9339
258.7700   10833.2841
260.8100   10833.1866
262.8600   10833.2510
264.9000   10833.0654
266.9400   10832.5730
268.9800   10832.2878
271.0200   10832.3763
273.0700   10831.1542
275.1100   10828.8272
277.1500   10826.4228
279.1900   10824.9886
281.2300   10824.8012
283.2700   10824.9812
285.3200   10825.1374
287.3600   10825.0008
289.4000   10824.9548
291.4400   10825.0685
293.4800   10825.1785
295.5300   10825.4592
297.5700   10825.5810
299.6100   10825.4274
301.6500   10825.0863
303.6900   10824.8473
305.7400   10824.7499
307.7800   10824.7957
309.8200   10825.0215
311.8600   10825.0604
313.9000   10825.7999
315.9500   10826.5073
317.9900   10827.1184
320.0300   10827.8972
322.0700   10828.0495
324.1100   10827.2013
326.1500   10826.6384
328.2000   10827.5953
330.2400   10828.7585
332.2800   10828.6561
334.3200   10828.0049
336.3600   10828.1411
338.4100   10827.6746
340.4500   10827.5172
342.4900   10827.2084
344.5300   10827.3890
346.5700   10827.1447
348.6200   10825.9797
350.6600   10825.6842
352.7000   10825.4103
354.7400   10824.7908
356.7800   10824.5320
358.8300   10824.5756
360.8700   10825.0277
362.9100   10826.1136
364.9500   10827.3889
366.9900   10828.4470
369.0300   10829.3343
371.0800   10830.4075
373.1200   10831.0121
375.1600   10830.8135
377.2000   10829.6060
379.2400   10829.7666
381.2900   10831.0875
383.3300   10831.5780
385.3700   10831.5844
387.4100   10832.0567
389.4500   10832.3237
391.5000   10832.2848
393.5400   10831.8669
395.5800   10831.1700
397.6200   10830.9308
399.6600   10831.6797
401.7100   10832.4387
403.7500   10832.2844
405.7900   10831.8422
407.8300   10830.7252
409.8700   10829.9605
411.9100   10831.0614
413.9600   10831.9184
416.0000   10832.1291
418.0400   10831.9523
420.0800   10831.7794
422.1200   10831.6315
424.1700   10831.6979
426.2100   10832.0570
428.2500   10832.1799
430.2900   10831.9968
432.3300   10831.8606
434.3800   10832.1590
436.4200   10832.4401
438.4600   10832.1712
440.5000   10830.8656
442.5400   10827.3337
444.5900   10824.0939
446.6300   10823.0512
448.6700   10822.7707
450.7100   10822.5940
452.7500   10822.5727
454.7900   10822.5121
456.8400   10822.1049
458.8800   10822.2573
460.9200   10822.4860
462.9600   10822.8322
465.0000   10822.8632
467.0500   10822.5898
469.0900   10823.5759
471.1300   10829.9330
473.1700   10838.4472
475.2100   10841.1382
477.2600   10841.2035
479.3000   10841.3830
481.3400   10841.7406
483.3800   10842.8566
485.4200   10843.7017
487.4700   10843.3254
489.5100   10842.9151
491.5500   10843.0057
493.5900   10844.6384
495.6300   10847.8430
497.6700   10850.1701
499.7200   10850.8324
501.7600   10850.9159
503.8000   10850.4533
505.8400   10850.2628
507.8800   10850.6472
509.9300   10850.9852
511.9700   10851.4715
514.0100   10852.0415
516.0500   10851.9862
518.0900   10851.0739
520.1400   10850.6331
522.1800   10850.8290
524.2200   10850.5870
526.2600   10848.9335
528.3000   10847.6565
530.3500   10849.5830
532.3900   10850.9311
534.4300   10851.4246
536.4700   10852.1216
538.5100   10852.2984
540.5500   10851.0032
542.6000   10851.0820
544.6400   10851.6315
546.6800   10851.9245
548.7200   10852.2492
550.7600   10852.1927
552.8100   10852.1976
554.8500   10851.9729
556.8900   10851.2039
558.9300   10850.0868
560.9700   10849.3124
563.0200   10850.5625
565.0600   10851.4544
567.1000   10851.2175
569.1400   10851.1402
571.1800   10851.3999
573.2300   10851.8016
575.2700   10851.3939
577.3100   10851.1283
579.3500   10851.2814
581.3900   10850.4759
583.4300   10848.3367
585.4800   10848.0917
587.5200   10849.6767
589.5600   10848.8115
591.6000   10846.5417
593.6400   10846.1196
595.6900   10846.4110
597.7300   10844.8441
599.7700   10844.2691
601.8100   10846.4533
603.8500   10849.3317
605.9000   10850.5407
607.9400   10850.3370
609.9800   10849.9788
612.0200   10849.6007
614.0600   10848.6599
616.1100   10848.7152
618.1500   10851.7752
620.1900   10854.3553
622.2300   10854.8725
624.2700   10854.4722
626.3100   10853.9486
628.3600   10853.6537
630.4000   10853.3071
632.4400   10852.8932
634.4800   10853.2496
636.5200   10853.2786
638.5700   10853.3511
640.6100   10853.6015
642.6500   10853.6451
644.6900   10853.0188
646.7300   10852.6821
648.7800   10853.3105
650.8200   10853.9552
652.8600   10853.8297
654.9000   10853.5623
656.9400   10853.3965
658.9900   10852.6980
661.0300   10852.1514
663.0700   10851.8743
665.1100   10851.7059
667.1500   10851.4299
669.1900   10851.3634
671.2400   10851.0043
673.2800   10850.4723
675.3200   10848.8780
677.3600   10846.7523
679.4000   10846.4145
681.4500   10846.4258
683.4900   10846.2119
685.5300   10845.9061
687.5700   10846.2746
689.6100   10846.4024
691.6600   10846.5499
693.7000   10846.6001
695.7400   10846.0210
697.7800   10845.4182
699.8200   10845.5066
701.8700   10845.6850
703.9100   10845.7986
705.9500   10845.9022
707.9900   10846.0404
710.0300   10845.1073
712.0700   10844.3584
714.1200   10844.2516
716.1600   10844.0216
718.2000   10844.4378
720.2400   10845.6179
722.2800   10846.2436
724.3300   10846.6481
726.3700   10847.1564
728.4100   10847.0521
730.4500   10847.1446
732.4900   10847.1848
734.5400   10847.3293
736.5800   10847.6340
738.6200   10847.8515
740.6600   10847.4826
742.7000   10847.2176
744.7500   10847.1863
746.7900   10847.4633
748.8300   10847.9374
750.8700   10847.9989
752.9100   10848.1370
754.9500   10847.9677
757.0000   10847.5044
759.0400   10846.8129
761.0800   10847.0517
763.1200   10847.0175
765.1600   10846.6627
767.2100   10846.3618
769.2500   10846.1265
771.2900   10846.4280
773.3300   10846.8005
775.3700   10847.3669
777.4200   10848.4219
779.4600   10848.7957
781.5000   10848.3880
783.5400   10848.6210
785.5800   10848.6896
787.6300   10848.1306
789.6700   10847.8765
791.7100   10847.9884
793.7500   10847.5488
795.7900   10847.0611
797.8300   10847.3385
799.8800   10847.8865
801.9200   10848.2302
803.9600   10848.0349
806.0000   10847.7459
808.0400   10847.6122
810.0900   10847.6011
812.1300   10847.5176
814.1700   10847.7162
816.2100   10847.7061
818.2500   10847.1153
820.3000   10846.9294
822.3400   10847.5330
824.3800   10848.0778
826.4200   10848.2373
828.4600   10847.9576
830.5100   10847.5425
832.5500   10847.7685
834.5900   10848.1581
836.6300   10848.2858
838.6700   10848.5524
840.7100   10848.3668
842.7600   10848.2224
844.8000   10847.5936
846.8400   10847.1971
848.8800   10847.2686
850.9200   10847.7948
852.9700   10848.4711
855.0100   10848.0824
857.0500   10847.1417
859.0900   10847.7023
861.1300   10848.2878
863.1800   10848.1177
865.2200   10848.0514
867.2600   10847.7094
869.3000   10846.8064
871.3400   10845.5197
873.3900   10844.0263
875.4300   10844.4142
877.4700   10845.5288
879.5100   10845.1534
881.5500   10845.4738
883.5900   10848.8582
885.6400   10851.9856
887.6800   10853.7487
889.7200   10853.6303
891.7600   10851.9652
893.8000   10849.8679
895.8500   10848.2677
897.8900   10846.3770
899.9300   10844.4316
901.9700   10844.6716
904.0100   10845.0471
906.0600   10844.2026
908.1000   10844.3970
910.1400   10845.6507
912.1800   10848.0708
914.2200   10850.5683
916.2700   10852.1404
918.3100   10852.1868
920.3500   10852.1508
922.3900   10852.1086
924.4300   10851.7395
926.4700   10850.5772
928.5200   10847.6233
930.5600   10847.7950
932.6000   10850.5129
934.6400   10851.2006
936.6800   10851.4763
938.7300   10851.5743
940.7700   10851.3856
942.8100   10851.4490
944.8500   10851.6271
946.8900   10851.3697
948.9400   10850.6042
950.9800   10849.0776
953.0200   10846.8198
955.0600   10847.9802
957.1000   10850.6888
959.1500   10851.8244
961.1900   10852.4579
963.2300   10852.5880
965.2700   10852.2757
967.3100   10850.7212
969.3500   10846.1430
971.4000   10842.0871
973.4400   10840.2130
975.4800   10839.9484
977.5200   10842.3456
979.5600   10847.6311
981.6100   10851.1922
983.6500   10851.9262
985.6900   10851.8552
987.7300   10852.1667
989.7700   10852.3199
991.8200   10852.4870
993.8600   10852.3714
995.9000   10852.6872
997.9400   10852.2754
999.9800   10850.4815
1002.0300   10849.0601
1004.0700   10850.7228
1006.1100   10852.3559
1008.1500   10853.3936
1010.1900   10853.8922
1012.2300   10853.8415
1014.2800   10854.2161
1016.3200   10854.5466
1018.3600   10854.5490
1020.4000   10854.1282
1022.4400   10853.0845
1024.4900   10850.6477
1026.5300   10848.5733
1028.5700   10850.9443
1030.6100   10852.9173
1032.6500   10852.9481
1034.7000   10853.2619
1036.7400   10853.3480
1038.7800   10852.6167
1040.8200   10852.1282
1042.8600   10852.2594
1044.9100   10851.8615
1046.9500   10851.2411
1048.9900   10849.7811
1051.0300   10848.7668
1053.0700   10851.0892
1055.1100   10852.2989
1057.1600   10852.7961
1059.2000   10852.4689
1061.2400   10852.2985
1063.2800   10852.6170
1065.3200   10852.6707
1067.3700   10851.7777
1069.4100   10851.4674
1071.4500   10851.2753
1073.4900   10849.1662
1075.5300   10847.9220
1077.5800   10849.7931
1079.6200   10850.6356
1081.6600   10850.4021
1083.7000   10850.3940
1085.7400   10850.5239
1087.7900   10850.5245
1089.8300   10850.3953
1091.8700   10850.8947
1093.9100   10851.2578
1095.9500   10850.6636
1097.9900   10848.4653
1100.0400   10848.7598
1102.0800   10851.1284
1104.1200   10852.3647
1106.1600   10853.1574
1108.2000   10853.6036
1110.2500   10853.9298
1112.2900   10854.4940
1114.3300   10854.7841
1116.3700   10854.6943
1118.4100   10854.9319
1120.4600   10853.4949
1122.5000   10851.0913
1124.5400   10851.8536
1126.5800   10853.8568
1128.6200   10854.2646
1130.6700   10854.2925
1132.7100   10854.5615
1134.7500   10854.4930
1136.7900   10854.6317
1138.8300   10854.5807
1140.8700   10853.8710
1142.9200   10853.2639
1144.9600   10852.0553
1147.0000   10849.8513
1149.0400   10850.9085
1151.0800   10852.7720
1153.1300   10853.4330
1155.1700   10853.8271
1157.2100   10853.5217
1159.2500   10853.1073
1161.2900   10852.6778
1163.3400   10852.6681
1165.3800   10852.2769
1167.4200   10852.0969
1169.4600   10850.3764
1171.5000   10848.2319
1173.5500   10849.6246
1175.5900   10850.5730
1177.6300   10851.2181
1179.6700   10851.5437
1181.7100   10851.4986
1183.7500   10851.7792
1185.8000   10852.0034
1187.8400   10852.2851
1189.8800   10852.5345
1191.9200   10852.2110
1193.9600   10850.1698
1196.0100   10849.1047
1198.0500   10850.9528
1200.0900   10852.2885
1202.1300   10852.8540
1204.1700   10853.1386
1206.2200   10853.5692
1208.2600   10853.6202
1210.3000   10853.2526
1212.3400   10853.4321
1214.3800   10853.6153
1216.4300   10853.0166
1218.4700   10850.9770
1220.5100   10850.2981
1222.5500   10852.7770
1224.5900   10853.8158
1226.6300   10853.5809
1228.6800   10853.1664
1230.7200   10852.3739
1232.7600   10852.5495
1234.8000   10852.7478
1236.8400   10852.6449
1238.8900   10852.4955
1240.9300   10852.1668
1242.9700   10850.3686
1245.0100   10849.3280
1247.0500   10850.7905
1249.1000   10851.8451
1251.1400   10852.7245
1253.1800   10852.5522
1255.2200   10851.7423
1257.2600   10851.9718
1259.3100   10852.4883
1261.3500   10852.6780
1263.3900   10852.5038
1265.4300   10850.9971
1267.4700   10849.2388
1269.5100   10849.7555
1271.5600   10851.6101
1273.6000   10852.5334
1275.6400   10852.6445
1277.6800   10852.6100
1279.7200   10852.6806
1281.7700   10852.5516
1283.8100   10852.5534
1285.8500   10852.5287
1287.8900   10852.4106
1289.9300   10851.3640
1291.9800   10848.6163
1294.0200   10848.2958
1296.0600   10851.2018
1298.1000   10852.6221
1300.1400   10852.7161
1302.1900   10852.5309
1304.2300   10852.3371
1306.2700   10852.8583
1308.3100   10853.7942
1310.3500   10854.0145
1312.3900   10853.9628
1314.4400   10853.2264
1316.4800   10851.2737
1318.5200   10851.5477
1320.5600   10853.1923
1322.6000   10853.0597
1324.6500   10853.1202
1326.6900   10853.9660
1328.7300   10854.2589
1330.7700   10853.5843
1332.8100   10852.8157
1334.8600   10853.1057
1336.9000   10853.0235
1338.9400   10851.5645
1340.9800   10848.4043
1343.0200   10846.8662
1345.0700   10848.5931
1347.1100   10850.6234
1349.1500   10851.7853
1351.1900   10852.5770
1353.2300   10852.9438
1355.2700   10852.8407
1357.3200   10850.2971
1359.3600   10845.9123
1361.4000   10844.0317
1363.4400   10843.8130
1365.4800   10843.6680
1367.5300   10843.3032
1369.5700   10842.6281
1371.6100   10842.5828
1373.6500   10842.9269
1375.6900   10843.2698
1377.7400   10844.0116
1379.7800   10845.0702
1381.8200   10845.2748
1383.8600   10845.4063
1385.9000   10847.1239
1387.9500   10848.6630
1389.9900   10847.9038
1392.0300   10847.0702
1394.0700   10846.5494
1396.1100   10846.4201
1398.1500   10847.9015
1400.2000   10849.5922
1402.2400   10849.8473
1404.2800   10849.5537
1406.3200   10847.9581
1408.3600   10846.1568
1410.4100   10845.9734
1412.4500   10847.3740
1414.4900   10848.2829
1416.5300   10847.8706
1418.5700   10846.3141
1420.6200   10844.5042
1422.6600   10844.4816
1424.7000   10845.9440
1426.7400   10848.2855
1428.7800   10849.9928
1430.8300   10850.4274
1432.8700   10850.1322
1434.9100   10849.9028
1436.9500   10850.0262
1438.9900   10850.2520
1441.0300   10850.1648
1443.0800   10850.6037
1445.1200   10850.2853
1447.1600   10849.8447
1449.2000   10849.2301
1451.2400   10849.0480
1453.2900   10849.1908
1455.3300   10849.5574
1457.3700   10849.8730
1459.4100   10849.8901
1461.4500   10850.0369
1463.5000   10850.3964
1465.5400   10850.1395
1467.5800   10851.0583
1469.6200   10852.0980
1471.6600   10851.5062
1473.7100   10850.4761
1475.7500   10847.9819
1477.7900   10845.4238
1479.8300   10843.6799
1481.8700   10842.9129
1483.9100   10845.1061
1485.9600   10845.2835
1488.0000   10843.4639
1490.0400   10841.6755
1492.0800   10841.3608
1494.1200   10841.8809
1496.1700   10842.2475
1498.2100   10842.7829
1500.2500   10843.8728
1502.2900   10844.3515
1504.3300   10843.4359
1506.3800   10842.1134
1508.4200   10843.3883
1510.4600   10846.5305
1512.5000   10848.9614
1514.5400   10850.3155
1516.5900   10848.9043
1518.6300   10845.8943
1520.6700   10842.9763
1522.7100   10840.5367
1524.7500   10839.2911
1526.7900   10838.9570
1528.8400   10839.2584
1530.8800   10840.2122
1532.9200   10842.4225
1534.9600   10846.3765
1537.0000   10850.2207
1539.0500   10851.3550
1541.0900   10852.0643
1543.1300   10853.2516
1545.1700   10854.0280
