#----------------------------------
# BOTDR
# DSTS: v.07.1
# Wed Sep 29 12:23:03 2021
#
# Channel No  = 1
# Partial   = 0
# Partial Start  = 0.00
# Partial End  = 5118.55
# Fibre Length    [m]   = 5118.55  0.00
# Fiber Delay    [m]   = 118.55
# Connection Point    [m]   = 198.64
# Rpt.period      [us]  = 65
# Pulse width     [ns]  = 40
# Frequency Start [MHz] = 10690.00
# Frequency End:  [MHz] = 10990.00
# Frequency Step: [MHz] = 5.00
# No.Averages:    [-]   = 12000
# Sampling Rate   [-]   = 2 (50.00MSs, spatial step = 2.00m)
# Input Range     [-]   = 2 (1V)
# Pulse Delay     [m]   = 100
# Post Pulse Data [m]   = 0
# Fiber Type      [-]   = CH4 Land
# Fiber  temperature [C] = 30.00
# Fiber  Bril Frequency  [MHz] = 10840.00
# Fiber  Strain Coefficient  [ue/MHz] = 18.9150
# Fiber Temperature Coefficient [C/MHz] = 0.9765
# Fiber Refractive Index = 1.4682
# Fiber Sigma = 0.2000
#
#----------------------------------
2D Baseline
2509

-118.5500   10840.0000
-116.5500   10840.0000
-114.5500   10840.0000
-112.5500   10840.0000
-110.5500   10840.0000
-108.5500   10840.0000
-106.5500   10840.0000
-104.5500   10840.0000
-102.5500   10840.0000
-100.5500   10840.0000
-98.5500   10840.0000
-96.5500   10840.0000
-94.5500   10840.0000
-92.5500   10840.0000
-90.5500   10840.0000
-88.5500   10840.0000
-86.5500   10840.0000
-84.5500   10840.0000
-82.5500   10840.0000
-80.5500   10840.0000
-78.5500   10840.0000
-76.5500   10840.0000
-74.5500   10840.0000
-72.5500   10840.0000
-70.5500   10840.0000
-68.5500   10840.0000
-66.5500   10840.0000
-64.5500   10840.0000
-62.5500   10840.0000
-60.5500   10840.0000
-58.5500   10840.0000
-56.5500   10840.0000
-54.5500   10840.0000
-52.5500   10840.0000
-50.5500   10840.0000
-48.5500   10840.0000
-46.5500   10840.0000
-44.5500   10840.0000
-42.5500   10840.0000
-40.5500   10840.0000
-38.5500   10840.0000
-36.5500   10840.0000
-34.5500   10840.0000
-32.5500   10840.0000
-30.5500   10840.0000
-28.5500   10840.0000
-26.5500   10840.0000
-24.5500   10840.0000
-22.5500   10840.0000
-20.5500   10840.0000
-18.5500   10840.0000
-16.5500   10840.0000
-14.5500   10840.0000
-12.5500   10840.0000
-10.5500   10840.0000
-8.5500   10840.0000
-6.5500   10840.0000
-4.5500   10840.0000
-2.5500   10814.8897
-0.5500   10812.1687
1.4900   10804.2243
3.5300   10770.8719
5.5800   10761.4816
7.6200   10813.7096
9.6600   10824.2974
11.7000   10825.4849
13.7400   10825.6263
15.7900   10826.1585
17.8300   10826.7486
19.8700   10826.6886
21.9100   10826.6763
23.9500   10826.5557
25.9900   10826.3492
28.0400   10826.4663
30.0800   10826.5680
32.1200   10826.8615
34.1600   10827.4604
36.2000   10827.9238
38.2500   10828.1272
40.2900   10828.0508
42.3300   10828.4320
44.3700   10828.5272
46.4100   10829.0503
48.4600   10829.7851
50.5000   10829.8339
52.5400   10829.6801
54.5800   10829.3709
56.6200   10829.4619
58.6700   10830.4745
60.7100   10833.1275
62.7500   10834.3988
64.7900   10834.2753
66.8300   10833.5507
68.8700   10832.6083
70.9200   10831.8272
72.9600   10831.6968
75.0000   10831.4878
77.0400   10830.8847
79.0800   10830.5429
81.1300   10830.3773
83.1700   10830.4549
85.2100   10832.3360
87.2500   10835.6040
89.2900   10838.9503
91.3400   10840.7092
93.3800   10841.2720
95.4200   10841.5687
97.4600   10841.5915
99.5000   10841.4215
101.5500   10840.9211
103.5900   10840.3509
105.6300   10839.8585
107.6700   10839.7087
109.7100   10840.0818
111.7500   10840.1117
113.8000   10839.7571
115.8400   10839.5911
117.8800   10839.3943
119.9200   10838.9301
121.9600   10838.5507
124.0100   10838.3723
126.0500   10838.8494
128.0900   10838.8690
130.1300   10838.4827
132.1700   10838.7922
134.2200   10839.4497
136.2600   10838.5599
138.3000   10837.6028
140.3400   10837.4848
142.3800   10838.1434
144.4300   10838.2584
146.4700   10838.4195
148.5100   10838.4077
150.5500   10837.5236
152.5900   10835.7797
154.6300   10834.9501
156.6800   10836.4111
158.7200   10837.4035
160.7600   10835.9169
162.8000   10834.5145
164.8400   10835.5019
166.8900   10838.0158
168.9300   10839.3894
170.9700   10838.2673
173.0100   10834.7716
175.0500   10832.2589
177.1000   10832.3797
179.1400   10835.3818
181.1800   10838.1451
183.2200   10838.3811
185.2600   10836.2741
187.3100   10835.4405
189.3500   10836.3897
191.3900   10835.5589
193.4300   10834.1668
195.4700   10835.7262
197.5100   10838.3763
199.5600   10839.1694
201.6000   10838.0481
203.6400   10836.0361
205.6800   10837.4699
207.7200   10840.5036
209.7700   10841.1074
211.8100   10840.9940
213.8500   10840.5719
215.8900   10840.9910
217.9300   10841.2252
219.9800   10841.0271
222.0200   10840.8860
224.0600   10840.6831
226.1000   10839.8538
228.1400   10838.6014
230.1900   10838.7460
232.2300   10840.0169
234.2700   10840.4850
236.3100   10840.6065
238.3500   10840.8531
240.3900   10840.6973
242.4400   10840.4400
244.4800   10841.0471
246.5200   10841.6023
248.5600   10841.6306
250.6000   10840.8469
252.6500   10838.4320
254.6900   10837.9424
256.7300   10839.7771
258.7700   10840.4484
260.8100   10840.7858
262.8600   10840.6793
264.9000   10840.1496
266.9400   10839.5809
268.9800   10839.2831
271.0200   10838.9321
273.0700   10838.0712
275.1100   10836.2267
277.1500   10833.8213
279.1900   10832.3220
281.2300   10832.2909
283.2700   10832.3573
285.3200   10832.1631
287.3600   10832.1016
289.4000   10832.1227
291.4400   10832.0465
293.4800   10832.5060
295.5300   10832.8957
297.5700   10833.0611
299.6100   10833.9742
301.6500   10833.7518
303.6900   10832.9066
305.7400   10832.6804
307.7800   10832.2674
309.8200   10832.3350
311.8600   10832.8633
313.9000   10833.7871
315.9500   10834.1937
317.9900   10834.8041
320.0300   10835.0480
322.0700   10834.6966
324.1100   10834.3057
326.1500   10834.8668
328.2000   10835.6654
330.2400   10836.0681
332.2800   10836.0215
334.3200   10835.2128
336.3600   10835.1957
338.4100   10834.7648
340.4500   10834.1007
342.4900   10834.0219
344.5300   10834.2675
346.5700   10833.8547
348.6200   10832.9597
350.6600   10832.6123
352.7000   10832.4943
354.7400   10832.5547
356.7800   10833.4777
358.8300   10833.8913
360.8700   10833.9271
362.9100   10834.9435
364.9500   10836.0679
366.9900   10836.5174
369.0300   10837.0051
371.0800   10837.9534
373.1200   10838.2666
375.1600   10837.5598
377.2000   10836.5639
379.2400   10837.4693
381.2900   10838.5495
383.3300   10838.8630
385.3700   10838.9363
387.4100   10838.7788
389.4500   10838.8643
391.5000   10838.5271
393.5400   10838.1551
395.5800   10838.1289
397.6200   10838.6656
399.6600   10839.2310
401.7100   10839.2397
403.7500   10839.0440
405.7900   10838.7010
407.8300   10837.6720
409.8700   10836.8416
411.9100   10837.6034
413.9600   10838.4931
416.0000   10839.0893
418.0400   10839.1497
420.0800   10839.1177
422.1200   10838.9114
424.1700   10838.7611
426.2100   10839.0272
428.2500   10839.5307
430.2900   10839.6665
432.3300   10839.6501
434.3800   10839.5912
436.4200   10839.8038
438.4600   10839.3200
440.5000   10837.5696
442.5400   10834.5876
444.5900   10831.7081
446.6300   10830.7223
448.6700   10830.4830
450.7100   10830.1941
452.7500   10830.1358
454.7900   10830.1958
456.8400   10830.2943
458.8800   10830.5862
460.9200   10831.4045
462.9600   10831.5907
465.0000   10831.2262
467.0500   10831.4601
469.0900   10832.8903
471.1300   10836.9832
473.1700   10840.7212
475.2100   10840.8504
477.2600   10840.8106
479.3000   10841.5643
481.3400   10841.7148
483.3800   10842.3109
485.4200   10843.0392
487.4700   10843.0703
489.5100   10842.2335
491.5500   10841.9674
493.5900   10843.9138
495.6300   10846.4848
497.6700   10848.0529
499.7200   10848.1969
501.7600   10848.1261
503.8000   10848.2274
505.8400   10848.2827
507.8800   10848.7030
509.9300   10849.0714
511.9700   10849.2360
514.0100   10849.1736
516.0500   10849.2562
518.0900   10849.3458
520.1400   10849.0324
522.1800   10848.6210
524.2200   10848.1343
526.2600   10846.4047
528.3000   10846.0500
530.3500   10848.1706
532.3900   10849.3427
534.4300   10849.8237
536.4700   10850.4663
538.5100   10850.2927
540.5500   10848.8100
542.6000   10849.2924
544.6400   10850.2643
546.6800   10850.7662
548.7200   10850.9132
550.7600   10851.4011
552.8100   10851.6003
554.8500   10851.3275
556.8900   10850.7734
558.9300   10849.0237
560.9700   10847.5842
563.0200   10848.8577
565.0600   10849.7437
567.1000   10849.8062
569.1400   10849.6400
571.1800   10849.5174
573.2300   10849.7013
575.2700   10850.2113
577.3100   10850.2440
579.3500   10850.1036
581.3900   10848.8241
583.4300   10846.5905
585.4800   10847.1301
587.5200   10848.5465
589.5600   10847.2386
591.6000   10844.8169
593.6400   10845.1569
595.6900   10846.0009
597.7300   10844.7638
599.7700   10843.6852
601.8100   10845.4511
603.8500   10848.4237
605.9000   10849.3829
607.9400   10848.9170
609.9800   10848.2307
612.0200   10847.8276
614.0600   10847.2488
616.1100   10848.8698
618.1500   10851.7573
620.1900   10853.7953
622.2300   10854.7381
624.2700   10854.1523
626.3100   10852.8969
628.3600   10851.7316
630.4000   10850.8557
632.4400   10850.5223
634.4800   10850.2376
636.5200   10850.5745
638.5700   10850.8589
640.6100   10850.7972
642.6500   10850.7006
644.6900   10850.1255
646.7300   10849.7925
648.7800   10850.6145
650.8200   10851.2944
652.8600   10851.1859
654.9000   10851.0749
656.9400   10851.2119
658.9900   10851.1563
661.0300   10850.8195
663.0700   10850.3000
665.1100   10849.6590
667.1500   10849.2511
669.1900   10849.4216
671.2400   10849.4288
673.2800   10848.6731
675.3200   10847.1756
677.3600   10845.4027
679.4000   10845.2705
681.4500   10845.4895
683.4900   10845.0758
685.5300   10845.1700
687.5700   10845.3669
689.6100   10845.1092
691.6600   10844.6334
693.7000   10844.7330
695.7400   10844.6749
697.7800   10844.3499
699.8200   10844.3295
701.8700   10844.1108
703.9100   10844.1617
705.9500   10844.3373
707.9900   10844.4265
710.0300   10844.3338
712.0700   10843.9920
714.1200   10843.3752
716.1600   10842.8352
718.2000   10843.3592
720.2400   10844.1279
722.2800   10844.5792
724.3300   10844.8741
726.3700   10845.1136
728.4100   10845.4126
730.4500   10845.5471
732.4900   10845.6396
734.5400   10845.5081
736.5800   10845.5309
738.6200   10845.6689
740.6600   10845.7313
742.7000   10845.5369
744.7500   10845.0964
746.7900   10845.0632
748.8300   10845.7465
750.8700   10846.1402
752.9100   10846.2634
754.9500   10846.4701
757.0000   10845.7688
759.0400   10845.0829
761.0800   10845.0971
763.1200   10844.8857
765.1600   10844.8861
767.2100   10844.7019
769.2500   10844.6352
771.2900   10845.1104
773.3300   10845.4820
775.3700   10846.1479
777.4200   10847.1631
779.4600   10847.4416
781.5000   10847.1287
783.5400   10847.0420
785.5800   10847.1061
787.6300   10847.1484
789.6700   10847.4624
791.7100   10847.7205
793.7500   10847.0306
795.7900   10846.3292
797.8300   10846.0887
799.8800   10846.2292
801.9200   10846.0033
803.9600   10845.5929
806.0000   10845.6358
808.0400   10845.9180
810.0900   10845.9265
812.1300   10845.7602
814.1700   10846.0682
816.2100   10845.8436
818.2500   10845.1183
820.3000   10845.5299
822.3400   10846.5526
824.3800   10846.9166
826.4200   10847.1347
828.4600   10846.6641
830.5100   10845.9108
832.5500   10846.1383
834.5900   10846.3461
836.6300   10845.9167
838.6700   10845.7547
840.7100   10845.7020
842.7600   10845.6876
844.8000   10845.6084
846.8400   10845.5448
848.8800   10845.6755
850.9200   10845.7804
852.9700   10845.8628
855.0100   10845.6670
857.0500   10845.2158
859.0900   10846.0558
861.1300   10846.3787
863.1800   10845.8129
865.2200   10845.5311
867.2600   10845.1755
869.3000   10844.9032
871.3400   10844.5261
873.3900   10843.5861
875.4300   10843.9432
877.4700   10844.0151
879.5100   10843.2108
881.5500   10843.9377
883.5900   10847.6380
885.6400   10850.5853
887.6800   10851.8692
889.7200   10851.4151
891.7600   10849.8388
893.8000   10847.8859
895.8500   10845.8575
897.8900   10843.9636
899.9300   10843.0364
901.9700   10843.7622
904.0100   10844.2798
906.0600   10843.3728
908.1000   10842.5269
910.1400   10843.9666
912.1800   10846.9147
914.2200   10849.4549
916.2700   10850.6986
918.3100   10851.1241
920.3500   10850.8504
922.3900   10850.6004
924.4300   10850.3589
926.4700   10848.4254
928.5200   10845.7705
930.5600   10847.0664
932.6000   10849.7551
934.6400   10850.2293
936.6800   10850.2008
938.7300   10850.2074
940.7700   10850.1929
942.8100   10850.2813
944.8500   10850.0958
946.8900   10849.3615
948.9400   10848.8507
950.9800   10846.8110
953.0200   10844.8348
955.0600   10846.7658
957.1000   10849.2481
959.1500   10850.0836
961.1900   10850.6302
963.2300   10850.8179
965.2700   10849.9833
967.3100   10847.7521
969.3500   10843.2244
971.4000   10839.8983
973.4400   10838.8157
975.4800   10838.8029
977.5200   10841.2931
979.5600   10846.5181
981.6100   10849.3651
983.6500   10849.9627
985.6900   10850.4344
987.7300   10850.3416
989.7700   10849.8868
991.8200   10849.4098
993.8600   10849.5162
995.9000   10849.6380
997.9400   10849.3559
999.9800   10847.5978
1002.0300   10846.6786
1004.0700   10848.8079
1006.1100   10850.6927
1008.1500   10851.1044
1010.1900   10851.2918
1012.2300   10851.9265
1014.2800   10852.2147
1016.3200   10852.7206
1018.3600   10853.0317
1020.4000   10852.2473
1022.4400   10851.2964
1024.4900   10848.9175
1026.5300   10847.6262
1028.5700   10849.8754
1030.6100   10851.4667
1032.6500   10851.9402
1034.7000   10851.8007
1036.7400   10851.4398
1038.7800   10850.7078
1040.8200   10850.6785
1042.8600   10850.8974
1044.9100   10850.7822
1046.9500   10849.9954
1048.9900   10847.6950
1051.0300   10846.9159
1053.0700   10849.6522
1055.1100   10850.8575
1057.1600   10850.7466
1059.2000   10851.2066
1061.2400   10851.2311
1063.2800   10850.6982
1065.3200   10850.3152
1067.3700   10850.6214
1069.4100   10850.7024
1071.4500   10849.5100
1073.4900   10846.7487
1075.5300   10846.4096
1077.5800   10848.3286
1079.6200   10848.6670
1081.6600   10848.5993
1083.7000   10848.8452
1085.7400   10848.4987
1087.7900   10848.2880
1089.8300   10848.3618
1091.8700   10848.2433
1093.9100   10848.3026
1095.9500   10847.5794
1097.9900   10846.1867
1100.0400   10847.3981
1102.0800   10849.4586
1104.1200   10850.0622
1106.1600   10850.3341
1108.2000   10850.8860
1110.2500   10851.4298
1112.2900   10851.6735
1114.3300   10851.7654
1116.3700   10852.2589
1118.4100   10852.5711
1120.4600   10850.8093
1122.5000   10848.9679
1124.5400   10850.2107
1126.5800   10851.1960
1128.6200   10851.0398
1130.6700   10851.2650
1132.7100   10851.3249
1134.7500   10851.4692
1136.7900   10851.3667
1138.8300   10851.3422
1140.8700   10851.1463
1142.9200   10850.6974
1144.9600   10848.9209
1147.0000   10847.2900
1149.0400   10849.4020
1151.0800   10850.6504
1153.1300   10850.9970
1155.1700   10851.2268
1157.2100   10850.9555
1159.2500   10850.5767
1161.2900   10850.3729
1163.3400   10850.3860
1165.3800   10850.5248
1167.4200   10849.7885
1169.4600   10848.0179
1171.5000   10847.3715
1173.5500   10849.2703
1175.5900   10850.1236
1177.6300   10850.3114
1179.6700   10850.6093
1181.7100   10850.7554
1183.7500   10850.5853
1185.8000   10851.2450
1187.8400   10851.0976
1189.8800   10850.8227
1191.9200   10850.8567
1193.9600   10848.6769
1196.0100   10847.7345
1198.0500   10849.8697
1200.0900   10851.0650
1202.1300   10851.1633
1204.1700   10851.1304
1206.2200   10851.1531
1208.2600   10851.2990
1210.3000   10851.0874
1212.3400   10851.3661
1214.3800   10851.6174
1216.4300   10850.6596
1218.4700   10848.5119
1220.5100   10848.3164
1222.5500   10850.4269
1224.5900   10851.2208
1226.6300   10851.0470
1228.6800   10850.7431
1230.7200   10850.3314
1232.7600   10850.1206
1234.8000   10849.9144
1236.8400   10849.7420
1238.8900   10850.1555
1240.9300   10849.7793
1242.9700   10847.4923
1245.0100   10847.3283
1247.0500   10849.1823
1249.1000   10850.4385
1251.1400   10851.0167
1253.1800   10850.7508
1255.2200   10849.4441
1257.2600   10849.2888
1259.3100   10849.6175
1261.3500   10849.8191
1263.3900   10849.9447
1265.4300   10848.6231
1267.4700   10846.7279
1269.5100   10847.8648
1271.5600   10850.2577
1273.6000   10851.2105
1275.6400   10851.3199
1277.6800   10851.2528
1279.7200   10851.0293
1281.7700   10850.7420
1283.8100   10850.6274
1285.8500   10850.1028
1287.8900   10849.5794
1289.9300   10848.2176
1291.9800   10845.6703
1294.0200   10846.3517
1296.0600   10848.9409
1298.1000   10850.0495
1300.1400   10850.4610
1302.1900   10850.3822
1304.2300   10850.4982
1306.2700   10850.6716
1308.3100   10850.9558
1310.3500   10851.8797
1312.3900   10852.2136
1314.4400   10850.7958
1316.4800   10848.9432
1318.5200   10849.5530
1320.5600   10850.7790
1322.6000   10850.5735
1324.6500   10850.9688
1326.6900   10852.0358
1328.7300   10851.8838
1330.7700   10851.4445
1332.8100   10851.2327
1334.8600   10850.9644
1336.9000   10849.9522
1338.9400   10847.5628
1340.9800   10845.0187
1343.0200   10845.0755
1345.0700   10848.2333
1347.1100   10850.3632
1349.1500   10851.1008
1351.1900   10851.4340
1353.2300   10851.4677
1355.2700   10850.4988
1357.3200   10847.5252
1359.3600   10843.3793
1361.4000   10841.3621
1363.4400   10841.1328
1365.4800   10840.7805
1367.5300   10840.4735
1369.5700   10840.1330
1371.6100   10840.6137
1373.6500   10841.0320
1375.6900   10841.3808
1377.7400   10842.3583
1379.7800   10842.8769
1381.8200   10842.6261
1383.8600   10843.2632
1385.9000   10844.7109
1387.9500   10845.2214
1389.9900   10845.3461
1392.0300   10844.6727
1394.0700   10844.2830
1396.1100   10845.7126
1398.1500   10847.9107
1400.2000   10848.4634
1402.2400   10848.2323
1404.2800   10847.8464
1406.3200   10846.1895
1408.3600   10844.7136
1410.4100   10845.4187
1412.4500   10847.7759
1414.4900   10849.2302
1416.5300   10848.6632
1418.5700   10846.2521
1420.6200   10843.3420
1422.6600   10842.8573
1424.7000   10845.6243
1426.7400   10848.4828
1428.7800   10848.8578
1430.8300   10848.6220
1432.8700   10847.8871
1434.9100   10847.0120
1436.9500   10846.8784
1438.9900   10846.9898
1441.0300   10847.5348
1443.0800   10847.8328
1445.1200   10847.9451
1447.1600   10847.5215
1449.2000   10846.7737
1451.2400   10847.0561
1453.2900   10847.1264
1455.3300   10847.0592
1457.3700   10847.6817
1459.4100   10847.9672
1461.4500   10848.2439
1463.5000   10848.4805
1465.5400   10848.8905
1467.5800   10849.1842
1469.6200   10849.6677
1471.6600   10849.3429
1473.7100   10847.7949
1475.7500   10845.1940
1477.7900   10843.0880
1479.8300   10841.1619
1481.8700   10840.9194
1483.9100   10842.9402
1485.9600   10842.7444
1488.0000   10841.5525
1490.0400   10839.7427
1492.0800   10839.0641
1494.1200   10840.0032
1496.1700   10840.5703
1498.2100   10840.6532
1500.2500   10841.9237
1502.2900   10842.6688
1504.3300   10841.5860
1506.3800   10840.5697
1508.4200   10841.5184
1510.4600   10844.1736
1512.5000   10846.4227
1514.5400   10847.3174
1516.5900   10845.4844
1518.6300   10842.0421
1520.6700   10839.0909
1522.7100   10837.2850
1524.7500   10836.8818
1526.7900   10837.3534
1528.8400   10837.6496
1530.8800   10837.8593
1532.9200   10840.2767
1534.9600   10844.6114
1537.0000   10847.9146
1539.0500   10848.9085
1541.0900   10850.0925
1543.1300   10851.0072
1545.1700   10851.2112
