#----------------------------------
# BOTDR
# DSTS: v.07.1
# Fri Oct 22 14:35:29 2021
#
# Channel No  = 0
# Partial   = 0
# Partial Start  = 0.00
# Partial End  = 4118.55
# Fibre Length    [m]   = 4118.55  0.00
# Fiber Delay    [m]   = 118.55
# Connection Point    [m]   = 198.64
# Rpt.period      [us]  = 65
# Pulse width     [ns]  = 40
# Frequency Start [MHz] = 10690.00
# Frequency End:  [MHz] = 10990.00
# Frequency Step: [MHz] = 5.00
# No.Averages:    [-]   = 12000
# Sampling Rate   [-]   = 0 (200.00MSs, spatial step = 0.50m)
# Input Range     [-]   = 2 (1V)
# Pulse Delay     [m]   = 100
# Post Pulse Data [m]   = 0
# Fiber Type      [-]   = CH4 Land
# Fiber  temperature [C] = 27.00
# Fiber  Bril Frequency  [MHz] = 10840.00
# Fiber  Strain Coefficient  [ue/MHz] = 18.9150
# Fiber Temperature Coefficient [C/MHz] = 0.9765
# Fiber Refractive Index = 1.4682
# Fiber Sigma = 0.2000
#
#----------------------------------
8074

-118.5500   10840.0000
-118.0500   10840.0000
-117.5500   10840.0000
-117.0500   10840.0000
-116.5500   10840.0000
-116.0500   10840.0000
-115.5500   10840.0000
-115.0500   10840.0000
-114.5500   10840.0000
-114.0500   10840.0000
-113.5500   10840.0000
-113.0500   10840.0000
-112.5500   10840.0000
-112.0500   10840.0000
-111.5500   10840.0000
-111.0500   10840.0000
-110.5500   10840.0000
-110.0500   10840.0000
-109.5500   10840.0000
-109.0500   10840.0000
-108.5500   10840.0000
-108.0500   10840.0000
-107.5500   10840.0000
-107.0500   10840.0000
-106.5500   10840.0000
-106.0500   10840.0000
-105.5500   10840.0000
-105.0500   10840.0000
-104.5500   10840.0000
-104.0500   10840.0000
-103.5500   10840.0000
-103.0500   10840.0000
-102.5500   10840.0000
-102.0500   10840.0000
-101.5500   10840.0000
-101.0500   10840.0000
-100.5500   10840.0000
-100.0500   10840.0000
-99.5500   10840.0000
-99.0500   10840.0000
-98.5500   10840.0000
-98.0500   10840.0000
-97.5500   10840.0000
-97.0500   10840.0000
-96.5500   10840.0000
-96.0500   10840.0000
-95.5500   10840.0000
-95.0500   10840.0000
-94.5500   10840.0000
-94.0500   10840.0000
-93.5500   10840.0000
-93.0500   10840.0000
-92.5500   10840.0000
-92.0500   10840.0000
-91.5500   10840.0000
-91.0500   10840.0000
-90.5500   10840.0000
-90.0500   10840.0000
-89.5500   10840.0000
-89.0500   10840.0000
-88.5500   10840.0000
-88.0500   10840.0000
-87.5500   10840.0000
-87.0500   10840.0000
-86.5500   10840.0000
-86.0500   10840.0000
-85.5500   10840.0000
-85.0500   10840.0000
-84.5500   10840.0000
-84.0500   10840.0000
-83.5500   10840.0000
-83.0500   10840.0000
-82.5500   10840.0000
-82.0500   10840.0000
-81.5500   10840.0000
-81.0500   10840.0000
-80.5500   10840.0000
-80.0500   10840.0000
-79.5500   10840.0000
-79.0500   10840.0000
-78.5500   10840.0000
-78.0500   10840.0000
-77.5500   10840.0000
-77.0500   10840.0000
-76.5500   10840.0000
-76.0500   10840.0000
-75.5500   10840.0000
-75.0500   10840.0000
-74.5500   10840.0000
-74.0500   10840.0000
-73.5500   10840.0000
-73.0500   10840.0000
-72.5500   10840.0000
-72.0500   10840.0000
-71.5500   10840.0000
-71.0500   10840.0000
-70.5500   10840.0000
-70.0500   10840.0000
-69.5500   10840.0000
-69.0500   10840.0000
-68.5500   10840.0000
-68.0500   10840.0000
-67.5500   10840.0000
-67.0500   10840.0000
-66.5500   10840.0000
-66.0500   10840.0000
-65.5500   10840.0000
-65.0500   10840.0000
-64.5500   10840.0000
-64.0500   10840.0000
-63.5500   10840.0000
-63.0500   10840.0000
-62.5500   10840.0000
-62.0500   10840.0000
-61.5500   10840.0000
-61.0500   10840.0000
-60.5500   10840.0000
-60.0500   10840.0000
-59.5500   10840.0000
-59.0500   10840.0000
-58.5500   10840.0000
-58.0500   10840.0000
-57.5500   10840.0000
-57.0500   10840.0000
-56.5500   10840.0000
-56.0500   10840.0000
-55.5500   10840.0000
-55.0500   10840.0000
-54.5500   10840.0000
-54.0500   10840.0000
-53.5500   10840.0000
-53.0500   10840.0000
-52.5500   10840.0000
-52.0500   10840.0000
-51.5500   10840.0000
-51.0500   10840.0000
-50.5500   10840.0000
-50.0500   10840.0000
-49.5500   10840.0000
-49.0500   10840.0000
-48.5500   10840.0000
-48.0500   10840.0000
-47.5500   10840.0000
-47.0500   10840.0000
-46.5500   10840.0000
-46.0500   10840.0000
-45.5500   10840.0000
-45.0500   10840.0000
-44.5500   10840.0000
-44.0500   10840.0000
-43.5500   10840.0000
-43.0500   10840.0000
-42.5500   10840.0000
-42.0500   10840.0000
-41.5500   10840.0000
-41.0500   10840.0000
-40.5500   10840.0000
-40.0500   10840.0000
-39.5500   10840.0000
-39.0500   10840.0000
-38.5500   10840.0000
-38.0500   10840.0000
-37.5500   10840.0000
-37.0500   10840.0000
-36.5500   10840.0000
-36.0500   10840.0000
-35.5500   10840.0000
-35.0500   10840.0000
-34.5500   10840.0000
-34.0500   10840.0000
-33.5500   10840.0000
-33.0500   10840.0000
-32.5500   10840.0000
-32.0500   10840.0000
-31.5500   10840.0000
-31.0500   10840.0000
-30.5500   10840.0000
-30.0500   10840.0000
-29.5500   10840.0000
-29.0500   10840.0000
-28.5500   10840.0000
-28.0500   10840.0000
-27.5500   10840.0000
-27.0500   10840.0000
-26.5500   10840.0000
-26.0500   10840.0000
-25.5500   10840.0000
-25.0500   10840.0000
-24.5500   10840.0000
-24.0500   10840.0000
-23.5500   10840.0000
-23.0500   10840.0000
-22.5500   10840.0000
-22.0500   10840.0000
-21.5500   10840.0000
-21.0500   10840.0000
-20.5500   10840.0000
-20.0500   10840.0000
-19.5500   10840.0000
-19.0500   10840.0000
-18.5500   10840.0000
-18.0500   10840.0000
-17.5500   10840.0000
-17.0500   10840.0000
-16.5500   10840.0000
-16.0500   10840.0000
-15.5500   10840.0000
-15.0500   10840.0000
-14.5500   10840.0000
-14.0500   10840.0000
-13.5500   10840.0000
-13.0500   10840.0000
-12.5500   10840.0000
-12.0500   10840.0000
-11.5500   10840.0000
-11.0500   10840.0000
-10.5500   10840.0000
-10.0500   10840.0000
-9.5500   10840.0000
-9.0500   10840.0000
-8.5500   10840.0000
-8.0500   10840.0000
-7.5500   10840.0000
-7.0500   10840.0000
-6.5500   10840.0000
-6.0500   10840.0000
-5.5500   10840.0000
-5.0500   10840.0000
-4.5500   10840.0000
-4.0500   10840.0000
-3.5500   10840.0000
-3.0500   10840.0000
-2.5500   10840.0000
-2.0500   10840.0000
-1.5500   10840.0000
-1.0500   10812.2131
-0.5500   10811.6798
-0.0500   10811.3231
0.4600   10810.7902
0.9700   10810.4419
1.4800   10809.9643
1.9900   10809.7306
2.5000   10809.4281
3.0100   10809.5535
3.5200   10810.1013
4.0300   10812.0645
4.5400   10816.3787
5.0500   10821.8225
5.5700   10826.5069
6.0800   10829.2281
6.5900   10830.7592
7.1000   10831.5648
7.6100   10831.9135
8.1200   10832.1501
8.6300   10832.1831
9.1400   10832.3645
9.6500   10832.4424
10.1600   10832.7310
10.6700   10832.9674
11.1800   10833.4310
11.6900   10833.8669
12.2000   10834.4906
12.7100   10835.0961
13.2200   10835.7587
13.7300   10836.3841
14.2400   10836.9687
14.7500   10837.3796
15.2600   10837.7543
15.7700   10837.8890
16.2900   10838.1050
16.8000   10838.0972
17.3100   10838.2666
17.8200   10838.2792
18.3300   10838.4872
18.8400   10838.4929
19.3500   10838.6068
19.8600   10838.4562
20.3700   10838.4362
20.8800   10838.1618
21.3900   10838.1361
21.9000   10837.9378
22.4100   10838.0143
22.9200   10837.8963
23.4300   10838.0430
23.9400   10837.8894
24.4500   10837.9469
24.9600   10837.6894
25.4700   10837.6683
25.9800   10837.4035
26.4900   10837.4478
27.0100   10837.2387
27.5200   10837.3481
28.0300   10837.2093
28.5400   10837.3404
29.0500   10837.2170
29.5600   10837.3889
30.0700   10837.3129
30.5800   10837.5714
31.0900   10837.5915
31.6000   10837.8609
32.1100   10837.8719
32.6200   10838.0451
33.1300   10837.9957
33.6400   10838.1443
34.1500   10838.0889
34.6600   10838.2714
35.1700   10838.2191
35.6800   10838.4713
36.1900   10838.4852
36.7000   10838.7897
37.2100   10838.9212
37.7300   10839.2907
38.2400   10839.4978
38.7500   10839.8795
39.2600   10840.0433
39.7700   10840.2689
40.2800   10840.2050
40.7900   10840.2606
41.3000   10840.0539
41.8100   10840.0605
42.3200   10839.8542
42.8300   10839.8939
43.3400   10839.7553
43.8500   10839.8548
44.3600   10839.6683
44.8700   10839.7262
45.3800   10839.5641
45.8900   10839.6560
46.4000   10839.5647
46.9100   10839.7315
47.4200   10839.6667
47.9300   10839.8213
48.4500   10839.6892
48.9600   10839.7908
49.4700   10839.6164
49.9800   10839.7410
50.4900   10839.5959
51.0000   10839.8088
51.5100   10839.7779
52.0200   10840.0208
52.5300   10839.9582
53.0400   10840.0981
53.5500   10839.9400
54.0600   10839.9603
54.5700   10839.6562
55.0800   10839.6310
55.5900   10839.3001
56.1000   10839.3167
56.6100   10839.0524
57.1200   10839.1798
57.6300   10839.0390
58.1400   10839.2234
58.6500   10839.1480
59.1700   10839.2934
59.6800   10839.1491
60.1900   10839.2383
60.7000   10839.0124
61.2100   10839.1046
61.7200   10838.9661
62.2300   10839.1024
62.7400   10839.0556
63.2500   10839.2367
63.7600   10839.1433
64.2700   10839.3290
64.7800   10839.1977
65.2900   10839.3098
65.8000   10839.1109
66.3100   10839.1817
66.8200   10838.9551
67.3300   10838.9921
67.8400   10838.7614
68.3500   10838.8823
68.8600   10838.6869
69.3700   10838.8507
69.8900   10838.7165
70.4000   10838.8712
70.9100   10838.7365
71.4200   10838.8356
71.9300   10838.6829
72.4400   10838.7718
72.9500   10838.6118
73.4600   10838.7718
73.9700   10838.6774
74.4800   10838.8752
74.9900   10838.8103
75.5000   10838.9966
76.0100   10838.9303
76.5200   10839.0929
77.0300   10838.9972
77.5400   10839.1306
78.0500   10838.9356
78.5600   10838.9782
79.0700   10838.6930
79.5800   10838.7213
80.0900   10838.4376
80.6100   10838.3766
81.1200   10837.9836
81.6300   10837.8803
82.1400   10837.4234
82.6500   10837.2650
83.1600   10836.6821
83.6700   10836.3859
84.1800   10835.5900
84.6900   10835.0764
85.2000   10833.6750
85.7100   10832.0852
86.2200   10808.2274
86.7300   10796.8247
87.2400   10772.7298
87.7500   10760.5886
88.2600   10759.5500
88.7700   10759.3268
89.2800   10758.9176
89.7900   10758.9096
90.3000   10758.6486
90.8100   10759.4197
91.3300   10763.3544
91.8400   10778.3103
92.3500   10810.2519
92.8600   10812.9329
93.3700   10814.2732
93.8800   10815.2692
94.3900   10815.6421
94.9000   10816.1233
95.4100   10816.1079
95.9200   10816.3563
96.4300   10816.2304
96.9400   10816.3957
97.4500   10816.2610
97.9600   10816.4809
98.4700   10816.4436
98.9800   10816.7179
99.4900   10816.7558
100.0000   10817.0706
100.5100   10817.1990
101.0200   10817.4937
101.5300   10817.5492
102.0500   10817.8178
102.5600   10817.7764
103.0700   10817.9607
103.5800   10817.7972
104.0900   10817.8781
104.6000   10817.6780
105.1100   10817.7661
105.6200   10817.5627
106.1300   10817.6864
106.6400   10817.5196
107.1500   10817.6635
107.6600   10817.4901
108.1700   10817.6673
108.6800   10817.4978
109.1900   10817.6604
109.7000   10817.4779
110.2100   10817.5856
110.7200   10817.3899
111.2300   10817.4454
111.7400   10817.2444
112.2500   10817.3786
112.7700   10817.2677
113.2800   10817.4689
113.7900   10817.5168
114.3000   10817.7611
114.8100   10817.8031
115.3200   10818.0285
115.8300   10817.8890
116.3400   10818.0252
116.8500   10817.8251
117.3600   10817.9024
117.8700   10817.7544
118.3800   10817.9151
118.8900   10817.8337
119.4000   10818.0892
119.9100   10818.2248
120.4200   10818.5433
120.9300   10818.7086
121.4400   10819.0551
121.9500   10819.1527
122.4600   10819.3937
122.9700   10819.3313
123.4900   10819.4939
124.0000   10819.2660
124.5100   10819.3397
125.0200   10819.1249
125.5300   10819.1630
126.0400   10818.9639
126.5500   10819.0641
127.0600   10818.8995
127.5700   10819.0996
128.0800   10819.0585
128.5900   10819.3085
129.1000   10819.2971
129.6100   10819.5914
130.1200   10819.6683
130.6300   10819.9643
131.1400   10820.0382
131.6500   10820.3424
132.1600   10820.3922
132.6700   10820.7078
133.1800   10820.7593
133.6900   10821.0605
134.2100   10821.0849
134.7200   10821.3122
135.2300   10821.2811
135.7400   10821.3995
136.2500   10821.2265
136.7600   10821.2665
137.2700   10820.9745
137.7800   10820.9189
138.2900   10820.5420
138.8000   10820.4647
139.3100   10820.1659
139.8200   10820.2501
140.3300   10820.0977
140.8400   10820.2422
141.3500   10820.1201
141.8600   10820.2711
142.3700   10820.2097
142.8800   10820.4642
143.3900   10820.6287
143.9000   10821.1296
144.4100   10821.5640
144.9300   10822.2312
145.4400   10822.6896
145.9500   10823.2240
146.4600   10823.3548
146.9700   10823.5606
147.4800   10823.3117
147.9900   10823.2293
148.5000   10822.8103
149.0100   10822.6882
149.5200   10822.2760
150.0300   10822.2056
150.5400   10821.9082
151.0500   10821.8528
151.5600   10821.4899
152.0700   10821.4760
152.5800   10821.1725
153.0900   10821.2401
153.6000   10820.9937
154.1100   10821.0716
154.6200   10820.7988
155.1300   10820.7781
155.6500   10820.3989
156.1600   10820.3795
156.6700   10820.0332
157.1800   10820.1336
157.6900   10819.9816
158.2000   10820.2521
158.7100   10820.1920
159.2200   10820.4585
159.7300   10820.3329
160.2400   10820.5046
160.7500   10820.3140
161.2600   10820.4555
161.7700   10820.2665
162.2800   10820.3798
162.7900   10820.2313
163.3000   10820.3934
163.8100   10820.2710
164.3200   10820.4651
164.8300   10820.3622
165.3400   10820.5132
165.8500   10820.4592
166.3700   10820.6091
166.8800   10820.4478
167.3900   10820.5337
167.9000   10820.4068
168.4100   10820.5650
168.9200   10820.5332
169.4300   10820.7843
169.9400   10820.7991
170.4500   10821.0106
170.9600   10820.9248
171.4700   10821.0935
171.9800   10820.9045
172.4900   10821.0274
173.0000   10820.9002
173.5100   10821.0425
174.0200   10820.9631
174.5300   10821.1689
175.0400   10821.1053
175.5500   10821.3018
176.0600   10821.2078
176.5700   10821.3431
177.0900   10821.1987
177.6000   10821.2757
178.1100   10821.0957
178.6200   10821.2363
179.1300   10821.0743
179.6400   10821.2487
180.1500   10821.1397
180.6600   10821.2742
181.1700   10821.1661
181.6800   10821.2694
182.1900   10821.0723
182.7000   10821.1404
183.2100   10820.9101
183.7200   10821.0176
184.2300   10820.8472
184.7400   10820.9595
185.2500   10820.8506
185.7600   10820.9925
186.2700   10820.9041
186.7800   10821.0191
187.2900   10820.8577
187.8100   10821.0032
188.3200   10820.8633
188.8300   10821.0307
189.3400   10821.0125
189.8500   10821.1842
190.3600   10821.1625
190.8700   10821.3613
191.3800   10821.2917
191.8900   10821.5076
192.4000   10821.4478
192.9100   10821.5879
193.4200   10821.4287
193.9300   10821.5274
194.4400   10821.3368
194.9500   10821.4042
195.4600   10821.1752
195.9700   10821.2176
196.4800   10821.0120
196.9900   10821.0377
197.5000   10820.8126
198.0100   10820.8867
198.5300   10820.6814
199.0400   10820.7792
199.5500   10820.6084
200.0600   10820.7639
200.5700   10820.7402
201.0800   10820.9822
201.5900   10821.0832
202.1000   10821.4364
202.6100   10821.5279
203.1200   10821.8252
203.6300   10821.7626
204.1400   10821.8892
204.6500   10821.6470
205.1600   10821.6738
205.6700   10821.3723
206.1800   10821.3571
206.6900   10821.0947
207.2000   10821.0867
207.7100   10820.8764
208.2200   10820.9406
208.7300   10820.8138
209.2500   10820.9612
209.7600   10820.9079
210.2700   10821.0634
210.7800   10820.9810
211.2900   10821.0970
211.8000   10820.8668
212.3100   10820.9411
212.8200   10820.7351
213.3300   10820.8693
213.8400   10820.8107
214.3500   10821.0334
214.8600   10821.0003
215.3700   10821.2125
215.8800   10821.0516
216.3900   10821.1398
216.9000   10820.9592
217.4100   10821.0500
217.9200   10820.9173
218.4300   10821.1252
218.9400   10821.0096
219.4500   10821.2018
219.9700   10821.0416
220.4800   10821.0955
220.9900   10820.8868
221.5000   10820.9215
222.0100   10820.7519
222.5200   10820.8581
223.0300   10820.7788
223.5400   10820.9854
224.0500   10820.9818
224.5600   10821.1514
225.0700   10821.0466
225.5800   10821.2113
226.0900   10821.1374
226.6000   10821.2777
227.1100   10821.1791
227.6200   10821.2929
228.1300   10821.0550
228.6400   10821.0872
229.1500   10820.7668
229.6600   10820.6982
230.1700   10820.3993
230.6900   10820.4249
231.2000   10820.2104
231.7100   10820.3464
232.2200   10820.2907
232.7300   10820.5753
233.2400   10820.5630
233.7500   10820.7763
234.2600   10820.6655
234.7700   10820.8370
235.2800   10820.7424
235.7900   10820.9251
236.3000   10820.8769
236.8100   10821.0696
237.3200   10821.0096
237.8300   10821.1128
238.3400   10820.8793
238.8500   10820.8754
239.3600   10820.6024
239.8700   10820.6163
240.3800   10820.4246
240.8900   10820.5216
241.4100   10820.4142
241.9200   10820.6185
242.4300   10820.5596
242.9400   10820.7565
243.4500   10820.6832
243.9600   10820.8212
244.4700   10820.7029
244.9800   10820.8105
245.4900   10820.6629
246.0000   10820.8133
246.5100   10820.6786
247.0200   10820.8372
247.5300   10820.6819
248.0400   10820.7922
248.5500   10820.6270
249.0600   10820.6933
249.5700   10820.5865
250.0800   10820.7520
250.5900   10820.6782
251.1000   10820.9061
251.6100   10820.8618
252.1300   10821.1296
252.6400   10821.1475
253.1500   10821.4200
253.6600   10821.4298
254.1700   10821.6991
254.6800   10821.6689
255.1900   10821.8639
255.7000   10821.7034
256.2100   10821.7587
256.7200   10821.4884
257.2300   10821.4707
257.7400   10821.1565
258.2500   10821.1520
258.7600   10820.8635
259.2700   10820.9189
259.7800   10820.7396
260.2900   10820.8773
260.8000   10820.8067
261.3100   10821.0286
261.8200   10821.0366
262.3300   10821.2559
262.8500   10821.2135
263.3600   10821.3863
263.8700   10821.2574
264.3800   10821.3522
264.8900   10821.1470
265.4000   10821.2249
265.9100   10821.0570
266.4200   10821.1097
266.9300   10820.9285
267.4400   10820.9919
267.9500   10820.8041
268.4600   10820.8862
268.9700   10820.7731
269.4800   10820.8986
269.9900   10820.7217
270.5000   10820.8966
271.0100   10820.7683
271.5200   10821.0596
272.0300   10821.1266
272.5400   10821.4766
273.0500   10821.5989
273.5700   10821.9219
274.0800   10821.8405
274.5900   10821.9200
275.1000   10821.5570
275.6100   10821.5049
276.1200   10821.1016
276.6300   10821.0321
277.1400   10820.7949
277.6500   10820.9114
278.1600   10820.7980
278.6700   10820.9581
279.1800   10820.9262
279.6900   10821.0923
280.2000   10821.0400
280.7100   10821.2436
281.2200   10821.2004
281.7300   10821.3968
282.2400   10821.4245
282.7500   10821.5835
283.2600   10821.5148
283.7700   10821.6976
284.2900   10821.5605
284.8000   10821.6846
285.3100   10821.4700
285.8200   10821.4540
286.3300   10821.1449
286.8400   10821.1122
287.3500   10820.7895
287.8600   10820.8905
288.3700   10820.7202
288.8800   10820.8950
289.3900   10820.8015
289.9000   10820.9863
290.4100   10820.9018
290.9200   10821.0651
291.4300   10821.0130
291.9400   10821.1465
292.4500   10821.0567
292.9600   10821.1629
293.4700   10821.0510
293.9800   10821.1816
294.4900   10821.0699
295.0100   10821.1764
295.5200   10821.0563
296.0300   10821.1416
296.5400   10820.9825
297.0500   10821.1149
297.5600   10820.9404
298.0700   10821.0650
298.5800   10820.9321
299.0900   10821.0842
299.6000   10820.9676
300.1100   10821.1204
300.6200   10821.1175
301.1300   10821.2896
301.6400   10821.2505
302.1500   10821.4277
302.6600   10821.4135
303.1700   10821.6306
303.6800   10821.5697
304.1900   10821.8069
304.7000   10821.6952
305.2100   10821.7716
