#----------------------------------
# BOTDR
# DSTS: v.07.1
# Fri Oct 22 14:40:05 2021
#
# Channel No  = 0
# Partial   = 0
# Partial Start  = 0.00
# Partial End  = 4118.55
# Fibre Length    [m]   = 4118.55  0.00
# Fiber Delay    [m]   = 118.55
# Connection Point    [m]   = 198.64
# Rpt.period      [us]  = 65
# Pulse width     [ns]  = 40
# Frequency Start [MHz] = 10690.00
# Frequency End:  [MHz] = 10990.00
# Frequency Step: [MHz] = 5.00
# No.Averages:    [-]   = 12000
# Sampling Rate   [-]   = 0 (200.00MSs, spatial step = 0.50m)
# Input Range     [-]   = 2 (1V)
# Pulse Delay     [m]   = 100
# Post Pulse Data [m]   = 0
# Fiber Type      [-]   = CH4 Land
# Fiber  temperature [C] = 27.00
# Fiber  Bril Frequency  [MHz] = 10840.00
# Fiber  Strain Coefficient  [ue/MHz] = 18.9150
# Fiber Temperature Coefficient [C/MHz] = 0.9765
# Fiber Refractive Index = 1.4682
# Fiber Sigma = 0.2000
#
#----------------------------------
8074

-118.5500   10840.0000
-118.0500   10840.0000
-117.5500   10840.0000
-117.0500   10840.0000
-116.5500   10840.0000
-116.0500   10840.0000
-115.5500   10840.0000
-115.0500   10840.0000
-114.5500   10840.0000
-114.0500   10840.0000
-113.5500   10840.0000
-113.0500   10840.0000
-112.5500   10840.0000
-112.0500   10840.0000
-111.5500   10840.0000
-111.0500   10840.0000
-110.5500   10840.0000
-110.0500   10840.0000
-109.5500   10840.0000
-109.0500   10840.0000
-108.5500   10840.0000
-108.0500   10840.0000
-107.5500   10840.0000
-107.0500   10840.0000
-106.5500   10840.0000
-106.0500   10840.0000
-105.5500   10840.0000
-105.0500   10840.0000
-104.5500   10840.0000
-104.0500   10840.0000
-103.5500   10840.0000
-103.0500   10840.0000
-102.5500   10840.0000
-102.0500   10840.0000
-101.5500   10840.0000
-101.0500   10840.0000
-100.5500   10840.0000
-100.0500   10840.0000
-99.5500   10840.0000
-99.0500   10840.0000
-98.5500   10840.0000
-98.0500   10840.0000
-97.5500   10840.0000
-97.0500   10840.0000
-96.5500   10840.0000
-96.0500   10840.0000
-95.5500   10840.0000
-95.0500   10840.0000
-94.5500   10840.0000
-94.0500   10840.0000
-93.5500   10840.0000
-93.0500   10840.0000
-92.5500   10840.0000
-92.0500   10840.0000
-91.5500   10840.0000
-91.0500   10840.0000
-90.5500   10840.0000
-90.0500   10840.0000
-89.5500   10840.0000
-89.0500   10840.0000
-88.5500   10840.0000
-88.0500   10840.0000
-87.5500   10840.0000
-87.0500   10840.0000
-86.5500   10840.0000
-86.0500   10840.0000
-85.5500   10840.0000
-85.0500   10840.0000
-84.5500   10840.0000
-84.0500   10840.0000
-83.5500   10840.0000
-83.0500   10840.0000
-82.5500   10840.0000
-82.0500   10840.0000
-81.5500   10840.0000
-81.0500   10840.0000
-80.5500   10840.0000
-80.0500   10840.0000
-79.5500   10840.0000
-79.0500   10840.0000
-78.5500   10840.0000
-78.0500   10840.0000
-77.5500   10840.0000
-77.0500   10840.0000
-76.5500   10840.0000
-76.0500   10840.0000
-75.5500   10840.0000
-75.0500   10840.0000
-74.5500   10840.0000
-74.0500   10840.0000
-73.5500   10840.0000
-73.0500   10840.0000
-72.5500   10840.0000
-72.0500   10840.0000
-71.5500   10840.0000
-71.0500   10840.0000
-70.5500   10840.0000
-70.0500   10840.0000
-69.5500   10840.0000
-69.0500   10840.0000
-68.5500   10840.0000
-68.0500   10840.0000
-67.5500   10840.0000
-67.0500   10840.0000
-66.5500   10840.0000
-66.0500   10840.0000
-65.5500   10840.0000
-65.0500   10840.0000
-64.5500   10840.0000
-64.0500   10840.0000
-63.5500   10840.0000
-63.0500   10840.0000
-62.5500   10840.0000
-62.0500   10840.0000
-61.5500   10840.0000
-61.0500   10840.0000
-60.5500   10840.0000
-60.0500   10840.0000
-59.5500   10840.0000
-59.0500   10840.0000
-58.5500   10840.0000
-58.0500   10840.0000
-57.5500   10840.0000
-57.0500   10840.0000
-56.5500   10840.0000
-56.0500   10840.0000
-55.5500   10840.0000
-55.0500   10840.0000
-54.5500   10840.0000
-54.0500   10840.0000
-53.5500   10840.0000
-53.0500   10840.0000
-52.5500   10840.0000
-52.0500   10840.0000
-51.5500   10840.0000
-51.0500   10840.0000
-50.5500   10840.0000
-50.0500   10840.0000
-49.5500   10840.0000
-49.0500   10840.0000
-48.5500   10840.0000
-48.0500   10840.0000
-47.5500   10840.0000
-47.0500   10840.0000
-46.5500   10840.0000
-46.0500   10840.0000
-45.5500   10840.0000
-45.0500   10840.0000
-44.5500   10840.0000
-44.0500   10840.0000
-43.5500   10840.0000
-43.0500   10840.0000
-42.5500   10840.0000
-42.0500   10840.0000
-41.5500   10840.0000
-41.0500   10840.0000
-40.5500   10840.0000
-40.0500   10840.0000
-39.5500   10840.0000
-39.0500   10840.0000
-38.5500   10840.0000
-38.0500   10840.0000
-37.5500   10840.0000
-37.0500   10840.0000
-36.5500   10840.0000
-36.0500   10840.0000
-35.5500   10840.0000
-35.0500   10840.0000
-34.5500   10840.0000
-34.0500   10840.0000
-33.5500   10840.0000
-33.0500   10840.0000
-32.5500   10840.0000
-32.0500   10840.0000
-31.5500   10840.0000
-31.0500   10840.0000
-30.5500   10840.0000
-30.0500   10840.0000
-29.5500   10840.0000
-29.0500   10840.0000
-28.5500   10840.0000
-28.0500   10840.0000
-27.5500   10840.0000
-27.0500   10840.0000
-26.5500   10840.0000
-26.0500   10840.0000
-25.5500   10840.0000
-25.0500   10840.0000
-24.5500   10840.0000
-24.0500   10840.0000
-23.5500   10840.0000
-23.0500   10840.0000
-22.5500   10840.0000
-22.0500   10840.0000
-21.5500   10840.0000
-21.0500   10840.0000
-20.5500   10840.0000
-20.0500   10840.0000
-19.5500   10840.0000
-19.0500   10840.0000
-18.5500   10840.0000
-18.0500   10840.0000
-17.5500   10840.0000
-17.0500   10840.0000
-16.5500   10840.0000
-16.0500   10840.0000
-15.5500   10840.0000
-15.0500   10840.0000
-14.5500   10840.0000
-14.0500   10840.0000
-13.5500   10840.0000
-13.0500   10840.0000
-12.5500   10840.0000
-12.0500   10840.0000
-11.5500   10840.0000
-11.0500   10840.0000
-10.5500   10840.0000
-10.0500   10840.0000
-9.5500   10840.0000
-9.0500   10840.0000
-8.5500   10840.0000
-8.0500   10840.0000
-7.5500   10840.0000
-7.0500   10840.0000
-6.5500   10840.0000
-6.0500   10840.0000
-5.5500   10840.0000
-5.0500   10840.0000
-4.5500   10840.0000
-4.0500   10840.0000
-3.5500   10840.0000
-3.0500   10840.0000
-2.5500   10840.0000
-2.0500   10840.0000
-1.5500   10840.0000
-1.0500   10810.8616
-0.5500   10810.3200
-0.0500   10810.0138
0.4600   10809.5668
0.9700   10809.3535
1.4800   10808.9667
1.9900   10808.8948
2.5000   10808.6580
3.0100   10809.0270
3.5200   10809.5967
4.0300   10811.5904
4.5400   10815.0607
5.0500   10820.3623
5.5700   10825.1947
6.0800   10828.1930
6.5900   10829.7834
7.1000   10830.5913
7.6100   10830.9104
8.1200   10831.1695
8.6300   10831.2654
9.1400   10831.4945
9.6500   10831.6135
10.1600   10831.9028
10.6700   10832.1406
11.1800   10832.6065
11.6900   10833.0524
12.2000   10833.7105
12.7100   10834.3645
13.2200   10835.1213
13.7300   10835.7817
14.2400   10836.4666
14.7500   10836.9463
15.2600   10837.4727
15.7700   10837.6544
16.2900   10837.9092
16.8000   10837.8331
17.3100   10837.9772
17.8200   10837.7981
18.3300   10837.9532
18.8400   10837.8674
19.3500   10838.0972
19.8600   10838.0225
20.3700   10838.2159
20.8800   10838.0546
21.3900   10838.1380
21.9000   10837.8796
22.4100   10837.8908
22.9200   10837.5232
23.4300   10837.4793
23.9400   10837.0841
24.4500   10837.0786
24.9600   10836.7570
25.4700   10836.8113
25.9800   10836.5805
26.4900   10836.7100
27.0100   10836.5236
27.5200   10836.6942
28.0300   10836.5436
28.5400   10836.8593
29.0500   10836.8685
29.5600   10837.2877
30.0700   10837.3679
30.5800   10837.7527
31.0900   10837.7429
31.6000   10837.9969
32.1100   10837.7692
32.6200   10837.9030
33.1300   10837.6742
33.6400   10837.8382
34.1500   10837.7459
34.6600   10837.9970
35.1700   10837.9635
35.6800   10838.2431
36.1900   10838.2032
36.7000   10838.4976
37.2100   10838.5091
37.7300   10838.8447
38.2400   10838.9062
38.7500   10839.2688
39.2600   10839.2341
39.7700   10839.4829
40.2800   10839.3965
40.7900   10839.5862
41.3000   10839.3921
41.8100   10839.5238
42.3200   10839.2753
42.8300   10839.3700
43.3400   10839.0938
43.8500   10839.1963
44.3600   10838.9623
44.8700   10839.0705
45.3800   10838.8799
45.8900   10839.0457
46.4000   10838.8888
46.9100   10839.0859
47.4200   10839.0152
47.9300   10839.2707
48.4500   10839.1466
48.9600   10839.4012
49.4700   10839.2126
49.9800   10839.3949
50.4900   10839.2022
51.0000   10839.3544
51.5100   10839.1872
52.0200   10839.4054
52.5300   10839.2933
53.0400   10839.5249
53.5500   10839.3718
54.0600   10839.5595
54.5700   10839.2991
55.0800   10839.4026
55.5900   10839.0854
56.1000   10839.1930
56.6100   10838.9628
57.1200   10839.1653
57.6300   10839.0580
58.1400   10839.3617
58.6500   10839.2587
59.1700   10839.5170
59.6800   10839.3185
60.1900   10839.4459
60.7000   10839.1685
61.2100   10839.2251
61.7200   10838.8643
62.2300   10838.9228
62.7400   10838.5980
63.2500   10838.6983
63.7600   10838.4216
64.2700   10838.5560
64.7800   10838.3311
65.2900   10838.5548
65.8000   10838.4524
66.3100   10838.6931
66.8200   10838.6071
67.3300   10838.8925
67.8400   10838.8263
68.3500   10839.0414
68.8600   10838.8908
69.3700   10839.1011
69.8900   10838.9231
70.4000   10839.1482
70.9100   10839.0039
71.4200   10839.2371
71.9300   10839.0871
72.4400   10839.2631
72.9500   10838.9724
73.4600   10839.0269
73.9700   10838.6701
74.4800   10838.7428
74.9900   10838.5483
75.5000   10838.7630
76.0100   10838.6244
76.5200   10838.9134
77.0300   10838.8742
77.5400   10839.1461
78.0500   10838.9868
78.5600   10839.1449
79.0700   10838.8399
79.5800   10838.8141
80.0900   10838.3402
80.6100   10838.1923
81.1200   10837.4942
81.6300   10837.2587
82.1400   10836.5308
82.6500   10836.2759
83.1600   10835.4847
83.6700   10835.2042
84.1800   10834.2672
84.6900   10833.6874
85.2000   10831.9782
85.7100   10829.4548
86.2200   10805.2415
86.7300   10792.9458
87.2400   10767.6515
87.7500   10759.6666
88.2600   10757.7466
88.7700   10756.7660
89.2800   10755.3588
89.7900   10754.2327
90.3000   10752.1009
90.8100   10750.0622
91.3300   10747.3507
91.8400   10755.2580
92.3500   10781.0848
92.8600   10812.5247
93.3700   10814.6181
93.8800   10815.8816
94.3900   10816.3006
94.9000   10816.7254
95.4100   10816.5908
95.9200   10816.6826
96.4300   10816.4120
96.9400   10816.4801
97.4500   10816.3510
97.9600   10816.5535
98.4700   10816.6399
98.9800   10817.0094
99.4900   10817.2574
100.0000   10817.6856
100.5100   10817.9317
101.0200   10818.3625
101.5300   10818.4787
102.0500   10818.7649
102.5600   10818.6874
103.0700   10818.7856
103.5800   10818.5863
104.0900   10818.5525
104.6000   10818.1926
105.1100   10818.1309
105.6200   10817.7934
106.1300   10817.7747
106.6400   10817.5435
107.1500   10817.6332
107.6600   10817.5876
108.1700   10817.7675
108.6800   10817.7890
109.1900   10818.0109
109.7000   10817.9511
110.2100   10818.1275
110.7200   10818.0442
111.2300   10818.1127
111.7400   10817.9379
112.2500   10817.9672
112.7700   10817.7445
113.2800   10817.7629
113.7900   10817.5907
114.3000   10817.6961
114.8100   10817.6321
115.3200   10817.8435
115.8300   10817.7993
116.3400   10818.0714
116.8500   10818.1563
117.3600   10818.4823
117.8700   10818.5811
118.3800   10818.8782
118.8900   10819.0019
119.4000   10819.2873
119.9100   10819.3986
120.4200   10819.6953
120.9300   10819.8133
121.4400   10820.0566
121.9500   10820.0372
122.4600   10820.1602
122.9700   10819.9719
123.4900   10819.9256
124.0000   10819.7211
124.5100   10819.7356
125.0200   10819.5936
125.5300   10819.7876
126.0400   10819.7970
126.5500   10820.0202
127.0600   10820.0406
127.5700   10820.2152
128.0800   10820.2028
128.5900   10820.3197
129.1000   10820.2140
129.6100   10820.3189
130.1200   10820.3145
130.6300   10820.4824
131.1400   10820.5588
131.6500   10820.8543
132.1600   10821.0345
132.6700   10821.3386
133.1800   10821.4568
133.6900   10821.6685
134.2100   10821.6161
134.7200   10821.6997
135.2300   10821.6233
135.7400   10821.7185
136.2500   10821.6734
136.7600   10821.8244
137.2700   10821.7115
137.7800   10821.7751
138.2900   10821.6182
138.8000   10821.5988
139.3100   10821.4270
139.8200   10821.4008
140.3300   10821.2119
140.8400   10821.2205
141.3500   10821.0805
141.8600   10821.1425
142.3700   10821.1038
142.8800   10821.4606
143.3900   10821.7918
143.9000   10822.4200
144.4100   10822.9954
144.9300   10823.6178
145.4400   10824.0195
145.9500   10824.3888
146.4600   10824.3929
146.9700   10824.3969
147.4800   10824.0615
147.9900   10823.8805
148.5000   10823.3181
149.0100   10822.9972
149.5200   10822.4135
150.0300   10822.0969
150.5400   10821.5525
151.0500   10821.3234
151.5600   10820.8275
152.0700   10820.6611
152.5800   10820.3029
153.0900   10820.2141
153.6000   10820.0167
154.1100   10820.0652
154.6200   10819.9570
155.1300   10820.0767
155.6500   10820.0125
156.1600   10820.1381
156.6700   10819.9630
157.1800   10820.0709
157.6900   10819.9504
158.2000   10820.0242
158.7100   10820.0021
159.2200   10820.1466
159.7300   10820.1049
160.2400   10820.2407
160.7500   10820.1593
161.2600   10820.2475
161.7700   10820.1526
162.2800   10820.2107
162.7900   10820.0913
163.3000   10820.1600
163.8100   10819.9714
164.3200   10819.9736
164.8300   10819.7564
165.3400   10819.7739
165.8500   10819.4918
166.3700   10819.5079
166.8800   10819.3419
167.3900   10819.4019
167.9000   10819.2942
168.4100   10819.4367
168.9200   10819.3596
169.4300   10819.5134
169.9400   10819.5082
170.4500   10819.6962
170.9600   10819.7163
171.4700   10819.9216
171.9800   10819.9612
172.4900   10820.1483
173.0000   10820.0960
173.5100   10820.2371
174.0200   10820.0887
174.5300   10820.2229
175.0400   10820.0833
175.5500   10820.1668
176.0600   10820.0290
176.5700   10820.1662
177.0900   10820.0324
177.6000   10820.1391
178.1100   10820.0723
178.6200   10820.2436
179.1300   10820.2995
179.6400   10820.5105
180.1500   10820.5983
180.6600   10820.8253
181.1700   10820.7858
181.6800   10820.9188
182.1900   10820.7690
182.7000   10820.7859
183.2100   10820.5455
183.7200   10820.4960
184.2300   10820.2306
184.7400   10820.2303
185.2500   10820.0167
185.7600   10820.1113
186.2700   10820.0284
186.7800   10820.1888
187.2900   10820.2385
187.8100   10820.4896
188.3200   10820.5062
188.8300   10820.7280
189.3400   10820.7615
189.8500   10820.9147
190.3600   10820.8801
190.8700   10820.9331
191.3800   10820.8169
191.8900   10820.7930
192.4000   10820.6274
192.9100   10820.6696
193.4200   10820.4083
193.9300   10820.4579
194.4400   10820.3027
194.9500   10820.3996
195.4600   10820.3249
195.9700   10820.4972
196.4800   10820.4681
196.9900   10820.6305
197.5000   10820.6127
198.0100   10820.7717
198.5300   10820.7085
199.0400   10820.8299
199.5500   10820.7275
200.0600   10820.8146
200.5700   10820.6663
201.0800   10820.7268
201.5900   10820.5922
202.1000   10820.6942
202.6100   10820.5718
203.1200   10820.6927
203.6300   10820.6158
204.1400   10820.7583
204.6500   10820.6743
205.1600   10820.7875
205.6700   10820.6729
206.1800   10820.7690
206.6900   10820.6750
207.2000   10820.8108
207.7100   10820.8135
208.2200   10821.0241
208.7300   10820.9980
209.2500   10821.1914
209.7600   10821.1401
210.2700   10821.1924
210.7800   10821.0306
211.2900   10821.1100
211.8000   10820.9860
212.3100   10821.1068
212.8200   10821.0734
213.3300   10821.2750
213.8400   10821.2098
214.3500   10821.3139
214.8600   10821.1817
215.3700   10821.2534
215.8800   10821.1227
216.3900   10821.1800
216.9000   10821.0626
217.4100   10821.2535
217.9200   10821.2273
218.4300   10821.4282
218.9400   10821.3508
219.4500   10821.4578
219.9700   10821.2760
220.4800   10821.2945
220.9900   10821.0461
221.5000   10821.0546
222.0100   10820.8604
222.5200   10820.9112
223.0300   10820.6793
223.5400   10820.6965
224.0500   10820.4672
224.5600   10820.5348
225.0700   10820.4261
225.5800   10820.5636
226.0900   10820.5740
226.6000   10820.7591
227.1100   10820.7343
227.6200   10820.8598
228.1300   10820.7224
228.6400   10820.7265
229.1500   10820.5196
229.6600   10820.5618
230.1700   10820.4118
230.6900   10820.5655
231.2000   10820.4925
231.7100   10820.6324
232.2200   10820.5164
232.7300   10820.5862
233.2400   10820.4331
233.7500   10820.5347
234.2600   10820.3945
234.7700   10820.4959
235.2800   10820.4417
235.7900   10820.6025
236.3000   10820.5753
236.8100   10820.7908
237.3200   10820.8150
237.8300   10821.0181
238.3400   10820.9385
238.8500   10821.0201
239.3600   10820.8658
239.8700   10820.9029
240.3800   10820.7152
240.8900   10820.8027
241.4100   10820.6903
241.9200   10820.8363
242.4300   10820.7503
242.9400   10820.8577
243.4500   10820.7611
243.9600   10820.8437
244.4700   10820.6778
244.9800   10820.6759
245.4900   10820.4178
246.0000   10820.4231
246.5100   10820.1716
247.0200   10820.1782
247.5300   10820.0505
248.0400   10820.1439
248.5500   10820.0928
249.0600   10820.2380
249.5700   10820.1968
250.0800   10820.3279
250.5900   10820.2891
251.1000   10820.4255
251.6100   10820.4185
252.1300   10820.5749
252.6400   10820.5010
253.1500   10820.6700
253.6600   10820.5958
254.1700   10820.6973
254.6800   10820.6319
255.1900   10820.7347
255.7000   10820.7059
256.2100   10820.8530
256.7200   10820.7665
257.2300   10820.8728
257.7400   10820.6967
258.2500   10820.6507
258.7600   10820.3982
259.2700   10820.3194
259.7800   10820.0913
260.2900   10820.1406
260.8000   10820.0620
261.3100   10820.2128
261.8200   10820.1951
262.3300   10820.2978
262.8500   10820.1536
263.3600   10820.2424
263.8700   10820.0765
264.3800   10820.1786
264.8900   10820.0633
265.4000   10820.2011
265.9100   10820.1388
266.4200   10820.3385
266.9300   10820.2831
267.4400   10820.4015
267.9500   10820.2545
268.4600   10820.2504
268.9700   10820.0281
269.4800   10820.1173
269.9900   10819.9709
270.5000   10820.1463
271.0100   10820.1131
271.5200   10820.3333
272.0300   10820.3232
272.5400   10820.3974
273.0500   10820.2471
273.5700   10820.2747
274.0800   10820.0693
274.5900   10820.1208
275.1000   10819.9176
275.6100   10819.9332
276.1200   10819.7726
276.6300   10819.8176
277.1400   10819.5720
277.6500   10819.5896
278.1600   10819.3809
278.6700   10819.4075
279.1800   10819.2533
279.6900   10819.3680
280.2000   10819.3470
280.7100   10819.5643
281.2200   10819.6222
281.7300   10819.8552
282.2400   10819.8373
282.7500   10820.0500
283.2600   10820.0495
283.7700   10820.2395
284.2900   10820.2426
284.8000   10820.4173
285.3100   10820.3711
285.8200   10820.5130
286.3300   10820.4203
286.8400   10820.5021
287.3500   10820.3173
287.8600   10820.3920
288.3700   10820.1836
288.8800   10820.2207
289.3900   10820.0448
289.9000   10820.0481
290.4100   10819.9048
290.9200   10819.9457
291.4300   10819.8168
291.9400   10820.0059
292.4500   10819.9612
292.9600   10820.1527
293.4700   10820.1712
293.9800   10820.3712
294.4900   10820.2735
295.0100   10820.3187
295.5200   10820.1592
296.0300   10820.2092
296.5400   10820.1090
297.0500   10820.2180
297.5600   10820.2367
298.0700   10820.4664
298.5800   10820.5225
299.0900   10820.7344
299.6000   10820.7859
300.1100   10820.9118
300.6200   10820.8252
301.1300   10820.8971
301.6400   10820.7365
302.1500   10820.8561
302.6600   10820.8604
303.1700   10821.0941
303.6800   10821.1014
304.1900   10821.3626
304.7000   10821.3774
305.2100   10821.4731
