#----------------------------------
# BOTDR
# DSTS: v.07.1
# Fri Oct 22 13:42:42 2021
#
# Channel No  = 1
# Partial   = 0
# Partial Start  = 0.00
# Partial End  = 5118.55
# Fibre Length    [m]   = 5118.55  0.00
# Fiber Delay    [m]   = 118.55
# Connection Point    [m]   = 198.64
# Rpt.period      [us]  = 65
# Pulse width     [ns]  = 40
# Frequency Start [MHz] = 10690.00
# Frequency End:  [MHz] = 10990.00
# Frequency Step: [MHz] = 5.00
# No.Averages:    [-]   = 12000
# Sampling Rate   [-]   = 2 (50.00MSs, spatial step = 2.00m)
# Input Range     [-]   = 2 (1V)
# Pulse Delay     [m]   = 100
# Post Pulse Data [m]   = 0
# Fiber Type      [-]   = CH4 Land
# Fiber  temperature [C] = 27.00
# Fiber  Bril Frequency  [MHz] = 10840.00
# Fiber  Strain Coefficient  [ue/MHz] = 18.9150
# Fiber Temperature Coefficient [C/MHz] = 0.9765
# Fiber Refractive Index = 1.4682
# Fiber Sigma = 0.2000
#
#----------------------------------
2509

-118.5500   10840.0000
-116.5500   10840.0000
-114.5500   10840.0000
-112.5500   10840.0000
-110.5500   10840.0000
-108.5500   10840.0000
-106.5500   10840.0000
-104.5500   10840.0000
-102.5500   10840.0000
-100.5500   10840.0000
-98.5500   10840.0000
-96.5500   10840.0000
-94.5500   10840.0000
-92.5500   10840.0000
-90.5500   10840.0000
-88.5500   10840.0000
-86.5500   10840.0000
-84.5500   10840.0000
-82.5500   10840.0000
-80.5500   10840.0000
-78.5500   10840.0000
-76.5500   10840.0000
-74.5500   10840.0000
-72.5500   10840.0000
-70.5500   10840.0000
-68.5500   10840.0000
-66.5500   10840.0000
-64.5500   10840.0000
-62.5500   10840.0000
-60.5500   10840.0000
-58.5500   10840.0000
-56.5500   10840.0000
-54.5500   10840.0000
-52.5500   10840.0000
-50.5500   10840.0000
-48.5500   10840.0000
-46.5500   10840.0000
-44.5500   10840.0000
-42.5500   10840.0000
-40.5500   10840.0000
-38.5500   10840.0000
-36.5500   10840.0000
-34.5500   10840.0000
-32.5500   10840.0000
-30.5500   10840.0000
-28.5500   10840.0000
-26.5500   10840.0000
-24.5500   10840.0000
-22.5500   10840.0000
-20.5500   10840.0000
-18.5500   10840.0000
-16.5500   10840.0000
-14.5500   10840.0000
-12.5500   10840.0000
-10.5500   10840.0000
-8.5500   10840.0000
-6.5500   10840.0000
-4.5500   10840.0000
-2.5500   10806.8729
-0.5500   10803.2988
1.4900   10803.0153
3.5300   10813.8453
5.5800   10830.1588
7.6200   10831.9143
9.6600   10832.5872
11.7000   10834.2624
13.7400   10836.4098
15.7900   10837.2207
17.8300   10837.3211
19.8700   10837.4992
21.9100   10837.1146
23.9500   10836.7432
25.9900   10836.4662
28.0400   10836.5056
30.0800   10836.6830
32.1200   10837.4515
34.1600   10838.1296
36.2000   10839.4062
38.2500   10840.5355
40.2900   10840.3424
42.3300   10839.7811
44.3700   10839.2265
46.4100   10839.1880
48.4600   10839.3149
50.5000   10839.1866
52.5400   10838.8345
54.5800   10838.3787
56.6200   10838.2605
58.6700   10838.1891
60.7100   10838.1151
62.7500   10838.2905
64.7900   10838.5678
66.8300   10838.6359
68.8700   10838.5842
70.9200   10838.6851
72.9600   10838.7963
75.0000   10838.8192
77.0400   10838.8389
79.0800   10838.3513
81.1300   10837.4705
83.1700   10836.2359
85.2100   10809.6101
87.2500   10761.9569
89.2900   10751.4268
91.3400   10762.0450
93.3800   10823.6290
95.4200   10824.8665
97.4600   10825.0323
99.5000   10825.1606
101.5500   10825.5525
103.5900   10825.9604
105.6300   10825.6922
107.6700   10825.2969
109.7100   10825.3528
111.7500   10825.2182
113.8000   10825.0540
115.8400   10825.0309
117.8800   10825.6996
119.9200   10826.7747
121.9600   10826.6757
124.0100   10826.6337
126.0500   10827.1573
128.0900   10827.2940
130.1300   10827.5091
132.1700   10828.5954
134.2200   10828.9397
136.2600   10828.4071
138.3000   10827.6391
140.3400   10827.4207
142.3800   10828.2644
144.4300   10830.2913
146.4700   10831.9268
148.5100   10832.1230
150.5500   10831.4501
152.5900   10830.5982
154.6300   10829.7237
156.6800   10829.3431
158.7200   10829.3174
160.7600   10828.7989
162.8000   10828.5805
164.8400   10828.2407
166.8900   10828.3836
168.9300   10829.9951
170.9700   10832.2287
173.0100   10833.4435
175.0500   10834.2468
177.1000   10835.2707
179.1400   10835.7524
181.1800   10835.6157
183.2200   10835.7823
185.2600   10835.4457
187.3100   10834.8633
189.3500   10834.0626
191.3900   10833.8503
193.4300   10834.4926
195.4700   10834.9450
197.5100   10835.0731
199.5600   10835.0176
201.6000   10834.9662
203.6400   10834.7571
205.6800   10834.7970
207.7200   10835.1888
209.7700   10835.1243
211.8100   10834.8897
213.8500   10834.6461
215.8900   10834.3867
217.9300   10834.2893
219.9800   10833.9992
222.0200   10832.9450
224.0600   10832.0689
226.1000   10832.2482
228.1400   10831.6507
230.1900   10832.1529
232.2300   10833.3956
234.2700   10833.3634
236.3100   10833.4396
238.3500   10834.7012
240.3900   10835.2516
242.4400   10834.9244
244.4800   10833.1718
246.5200   10831.2694
248.5600   10831.1358
250.6000   10832.1561
252.6500   10833.1671
254.6900   10833.3872
256.7300   10832.7029
258.7700   10832.0529
260.8100   10832.1196
262.8600   10832.5016
264.9000   10833.5419
266.9400   10833.5808
268.9800   10833.3955
271.0200   10833.1944
273.0700   10833.2007
275.1100   10833.6084
277.1500   10833.4023
279.1900   10833.1398
281.2300   10832.8996
283.2700   10833.2002
285.3200   10833.0275
287.3600   10832.2339
289.4000   10831.5430
291.4400   10831.5317
293.4800   10831.8088
295.5300   10832.1705
297.5700   10832.2407
299.6100   10833.2805
301.6500   10833.6384
303.6900   10833.1046
305.7400   10832.3777
307.7800   10832.8398
309.8200   10833.0676
311.8600   10831.8203
313.9000   10831.5913
315.9500   10833.0571
317.9900   10834.8242
320.0300   10835.7411
322.0700   10835.8442
324.1100   10836.3076
326.1500   10836.5789
328.2000   10836.6499
330.2400   10836.5308
332.2800   10836.6710
334.3200   10836.4240
336.3600   10835.9494
338.4100   10835.8320
340.4500   10836.2548
342.4900   10836.6332
344.5300   10836.7695
346.5700   10836.9129
348.6200   10836.0928
350.6600   10834.7110
352.7000   10833.5638
354.7400   10834.0195
356.7800   10835.2942
358.8300   10835.9532
360.8700   10836.3140
362.9100   10835.9908
364.9500   10835.9008
366.9900   10835.9250
369.0300   10834.9523
371.0800   10833.9310
373.1200   10833.4262
375.1600   10833.3420
377.2000   10833.1833
379.2400   10833.5451
381.2900   10833.9355
383.3300   10833.8552
385.3700   10833.5966
387.4100   10833.6894
389.4500   10834.7260
391.5000   10835.1023
393.5400   10834.6965
395.5800   10835.0261
397.6200   10835.6358
399.6600   10835.8093
401.7100   10835.8558
403.7500   10836.0769
405.7900   10835.9732
407.8300   10835.4443
409.8700   10835.6471
411.9100   10836.1071
413.9600   10836.2980
416.0000   10836.3253
418.0400   10835.9900
420.0800   10835.7107
422.1200   10836.0867
424.1700   10836.2372
426.2100   10836.4220
428.2500   10836.6564
430.2900   10836.7160
432.3300   10836.9397
434.3800   10836.7879
436.4200   10836.0942
438.4600   10835.9215
440.5000   10836.3873
442.5400   10836.3468
444.5900   10835.7483
446.6300   10835.4080
448.6700   10836.3524
450.7100   10837.0643
452.7500   10836.8706
454.7900   10836.6225
456.8400   10836.1897
458.8800   10835.8119
460.9200   10835.2205
462.9600   10834.7608
465.0000   10835.3430
467.0500   10834.9959
469.0900   10834.0301
471.1300   10834.1752
473.1700   10835.7311
475.2100   10836.5203
477.2600   10836.1987
479.3000   10835.3092
481.3400   10834.1756
483.3800   10835.4435
485.4200   10837.0847
487.4700   10837.5629
489.5100   10837.0913
491.5500   10835.8075
493.5900   10835.3427
495.6300   10835.7858
497.6700   10836.4916
499.7200   10835.9481
501.7600   10834.3999
503.8000   10833.0737
505.8400   10833.8064
507.8800   10835.5814
509.9300   10836.1058
511.9700   10835.9539
514.0100   10835.9731
516.0500   10836.1120
518.0900   10836.0813
520.1400   10835.3026
522.1800   10834.5701
524.2200   10834.4732
526.2600   10833.3902
528.3000   10832.1171
530.3500   10831.1495
532.3900   10830.8068
534.4300   10830.3979
536.4700   10829.8468
538.5100   10829.0119
540.5500   10828.7507
542.6000   10828.9960
544.6400   10829.4800
546.6800   10829.5311
548.7200   10829.8720
550.7600   10830.4301
552.8100   10832.2003
554.8500   10837.0434
556.8900   10841.8348
558.9300   10842.4718
560.9700   10841.1026
563.0200   10840.2880
565.0600   10839.5976
567.1000   10839.1888
569.1400   10839.4954
571.1800   10839.5858
573.2300   10839.3339
575.2700   10839.9289
577.3100   10840.9162
579.3500   10842.5364
581.3900   10843.1826
583.4300   10842.4757
585.4800   10842.4395
587.5200   10843.1770
589.5600   10843.7818
591.6000   10843.8842
593.6400   10843.6017
595.6900   10843.8976
597.7300   10844.1792
599.7700   10844.2845
601.8100   10844.1721
603.8500   10844.7229
605.9000   10844.4689
607.9400   10844.0659
609.9800   10843.3136
612.0200   10843.7693
614.0600   10844.7796
616.1100   10844.9372
618.1500   10845.5328
620.1900   10845.3935
622.2300   10843.7921
624.2700   10842.5876
626.3100   10842.7215
628.3600   10842.3529
630.4000   10842.3419
632.4400   10843.4054
634.4800   10844.4422
636.5200   10845.0922
638.5700   10844.9785
640.6100   10844.8567
642.6500   10844.2422
644.6900   10843.6795
646.7300   10843.2348
648.7800   10843.1192
650.8200   10842.7095
652.8600   10841.7964
654.9000   10841.2542
656.9400   10841.6004
658.9900   10842.1974
661.0300   10843.1547
663.0700   10843.9601
665.1100   10844.0698
667.1500   10843.7745
669.1900   10844.4781
671.2400   10844.6303
673.2800   10844.2574
675.3200   10843.1859
677.3600   10842.6889
679.4000   10843.0371
681.4500   10842.8930
683.4900   10842.5218
685.5300   10843.2773
687.5700   10843.3877
689.6100   10844.6664
691.6600   10846.2721
693.7000   10845.7730
695.7400   10844.1004
697.7800   10842.7519
699.8200   10843.2774
701.8700   10846.1953
703.9100   10848.8619
705.9500   10850.5425
707.9900   10851.9862
710.0300   10852.7910
712.0700   10852.6857
714.1200   10852.9496
716.1600   10852.5033
718.2000   10852.1712
720.2400   10851.7191
722.2800   10851.7107
724.3300   10852.0488
726.3700   10851.7783
728.4100   10850.7217
730.4500   10850.5935
732.4900   10851.6797
734.5400   10852.9230
736.5800   10853.3681
738.6200   10852.8585
740.6600   10852.5636
742.7000   10852.7124
744.7500   10852.8387
746.7900   10852.6317
748.8300   10851.8730
750.8700   10851.4197
752.9100   10851.3715
754.9500   10851.3100
757.0000   10851.5915
759.0400   10850.9758
761.0800   10849.4998
763.1200   10849.6641
765.1600   10850.6764
767.2100   10851.3213
769.2500   10851.6854
771.2900   10851.6589
773.3300   10851.4319
775.3700   10851.1832
777.4200   10850.5389
779.4600   10850.1016
781.5000   10850.2119
783.5400   10850.3425
785.5800   10850.2835
787.6300   10850.2007
789.6700   10850.0941
791.7100   10850.3299
793.7500   10850.1604
795.7900   10849.8865
797.8300   10849.3429
799.8800   10848.5019
801.9200   10849.3873
803.9600   10849.8991
806.0000   10848.7825
808.0400   10848.4322
810.0900   10849.0254
812.1300   10848.3449
814.1700   10847.6573
816.2100   10847.5874
818.2500   10847.9738
820.3000   10848.4798
822.3400   10848.2695
824.3800   10848.0083
826.4200   10848.2294
828.4600   10847.5267
830.5100   10846.6065
832.5500   10847.2492
834.5900   10848.0863
836.6300   10847.7964
838.6700   10847.1915
840.7100   10846.3370
842.7600   10845.9207
844.8000   10846.4538
846.8400   10845.9655
848.8800   10846.0996
850.9200   10846.6495
852.9700   10846.4828
855.0100   10846.4941
857.0500   10846.4322
859.0900   10845.8624
861.1300   10845.8196
863.1800   10844.9334
865.2200   10843.6591
867.2600   10844.2357
869.3000   10845.6217
871.3400   10845.8550
873.3900   10846.0572
875.4300   10845.8201
877.4700   10845.6118
879.5100   10845.9240
881.5500   10846.4948
883.5900   10846.7588
885.6400   10846.5405
887.6800   10846.6098
889.7200   10845.9796
891.7600   10845.8129
893.8000   10845.7202
895.8500   10845.6346
897.8900   10845.7037
899.9300   10845.7161
901.9700   10845.7438
904.0100   10845.3383
906.0600   10845.7136
908.1000   10845.9203
910.1400   10845.6846
912.1800   10845.1847
914.2200   10844.3615
916.2700   10843.8786
918.3100   10844.0045
920.3500   10843.9606
922.3900   10844.1737
924.4300   10844.4165
926.4700   10844.5384
928.5200   10844.6113
930.5600   10844.6484
932.6000   10844.4443
934.6400   10844.3871
936.6800   10843.6969
938.7300   10842.6068
940.7700   10841.4491
942.8100   10842.2577
944.8500   10843.7751
946.8900   10844.0059
948.9400   10844.0730
950.9800   10844.0459
953.0200   10843.8851
955.0600   10844.0880
957.1000   10843.9269
959.1500   10843.2083
961.1900   10843.3020
963.2300   10841.9939
965.2700   10840.9276
967.3100   10842.8716
969.3500   10845.3215
971.4000   10846.7159
973.4400   10846.5971
975.4800   10846.3055
977.5200   10846.1859
979.5600   10846.4574
981.6100   10846.5249
983.6500   10845.5838
985.6900   10844.4640
987.7300   10843.3081
989.7700   10843.1305
991.8200   10844.6899
993.8600   10845.1333
995.9000   10844.0512
997.9400   10842.5684
999.9800   10841.7217
1002.0300   10841.8884
1004.0700   10841.6102
1006.1100   10841.6432
1008.1500   10841.0305
1010.1900   10839.8959
1012.2300   10839.5424
1014.2800   10840.3800
1016.3200   10842.0006
1018.3600   10844.0244
1020.4000   10844.7617
1022.4400   10845.2255
1024.4900   10845.9544
1026.5300   10845.5459
1028.5700   10844.4569
1030.6100   10843.9350
1032.6500   10843.8373
1034.7000   10844.0243
1036.7400   10844.0808
1038.7800   10845.1337
1040.8200   10846.3413
1042.8600   10845.9353
1044.9100   10845.0412
1046.9500   10844.1138
1048.9900   10843.9320
1051.0300   10845.1024
1053.0700   10845.9920
1055.1100   10845.5674
1057.1600   10842.4406
1059.2000   10839.1294
1061.2400   10837.9185
1063.2800   10838.2954
1065.3200   10839.2979
1067.3700   10840.2856
1069.4100   10841.3830
1071.4500   10843.5803
1073.4900   10845.4505
1075.5300   10846.0339
1077.5800   10845.5688
1079.6200   10843.7904
1081.6600   10842.3040
1083.7000   10841.8978
1085.7400   10842.4472
1087.7900   10844.6802
1089.8300   10846.5899
1091.8700   10847.0525
1093.9100   10847.4657
1095.9500   10847.7357
1097.9900   10847.6004
1100.0400   10847.8521
1102.0800   10848.2517
1104.1200   10847.1273
1106.1600   10845.0764
1108.2000   10842.8681
1110.2500   10842.4009
1112.2900   10844.1024
1114.3300   10844.5752
1116.3700   10844.4874
1118.4100   10845.4010
1120.4600   10846.4549
1122.5000   10847.1594
1124.5400   10848.0231
1126.5800   10847.2009
1128.6200   10844.0620
1130.6700   10841.3716
1132.7100   10840.3887
1134.7500   10841.1024
1136.7900   10843.5327
1138.8300   10846.2395
1140.8700   10848.2386
1142.9200   10848.9718
1144.9600   10849.1402
1147.0000   10848.9605
1149.0400   10848.3836
1151.0800   10848.4431
1153.1300   10848.2714
1155.1700   10847.0454
1157.2100   10844.6809
1159.2500   10843.9098
1161.2900   10845.9505
1163.3400   10847.1090
1165.3800   10846.9247
1167.4200   10847.1790
1169.4600   10847.0516
1171.5000   10846.2295
1173.5500   10845.4920
1175.5900   10844.4800
1177.6300   10843.7796
1179.6700   10842.9435
1181.7100   10842.2690
1183.7500   10843.5010
1185.8000   10845.4702
1187.8400   10845.5732
1189.8800   10844.9055
1191.9200   10844.5787
1193.9600   10844.4742
1196.0100   10844.3940
1198.0500   10843.7809
1200.0900   10843.2506
1202.1300   10843.0851
1204.1700   10842.8556
1206.2200   10842.6690
1208.2600   10844.3614
1210.3000   10845.2213
1212.3400   10845.0211
1214.3800   10845.2009
1216.4300   10845.6006
1218.4700   10846.0032
1220.5100   10845.9292
1222.5500   10845.6181
1224.5900   10845.5138
1226.6300   10845.4083
1228.6800   10844.5771
1230.7200   10843.5519
1232.7600   10844.8647
1234.8000   10846.6657
1236.8400   10847.0143
1238.8900   10846.7604
1240.9300   10846.9187
1242.9700   10845.9818
1245.0100   10844.5644
1247.0500   10844.6378
1249.1000   10844.8258
1251.1400   10844.3082
1253.1800   10842.6573
1255.2200   10841.8530
1257.2600   10843.5159
1259.3100   10844.9618
1261.3500   10846.3338
1263.3900   10847.2208
1265.4300   10847.1786
1267.4700   10846.5026
1269.5100   10846.5089
1271.5600   10847.2057
1273.6000   10847.2570
1275.6400   10846.3335
1277.6800   10843.9844
1279.7200   10842.3135
1281.7700   10843.2897
1283.8100   10845.1792
1285.8500   10846.2778
1287.8900   10846.4727
1289.9300   10845.4777
1291.9800   10845.0842
1294.0200   10845.5666
1296.0600   10845.8878
1298.1000   10845.9177
1300.1400   10844.5825
1302.1900   10842.6826
1304.2300   10843.0648
1306.2700   10844.5619
1308.3100   10845.3273
1310.3500   10845.3607
1312.3900   10844.4781
1314.4400   10843.8325
1316.4800   10843.8430
1318.5200   10843.7915
1320.5600   10843.4402
1322.6000   10842.8149
1324.6500   10841.6703
1326.6900   10840.8686
1328.7300   10841.9510
1330.7700   10843.6713
1332.8100   10843.6613
1334.8600   10844.1138
1336.9000   10845.5968
1338.9400   10846.7322
1340.9800   10846.9104
1343.0200   10846.6552
1345.0700   10845.6987
1347.1100   10844.4339
1349.1500   10843.4866
1351.1900   10842.0391
1353.2300   10843.1704
1355.2700   10846.0982
1357.3200   10847.2075
1359.3600   10847.2719
1361.4000   10846.8574
1363.4400   10846.3919
1365.4800   10846.8362
1367.5300   10848.1590
1369.5700   10847.5557
1371.6100   10846.8113
1373.6500   10845.6862
1375.6900   10843.1292
1377.7400   10841.6342
1379.7800   10843.5760
1381.8200   10845.2605
1383.8600   10845.6308
1385.9000   10845.7163
1387.9500   10846.3301
1389.9900   10845.9417
1392.0300   10845.2874
1394.0700   10845.6099
1396.1100   10846.2611
1398.1500   10845.1912
1400.2000   10843.1139
1402.2400   10843.3521
1404.2800   10845.0330
1406.3200   10845.8558
1408.3600   10845.9396
1410.4100   10846.0539
1412.4500   10846.8921
1414.4900   10846.3344
1416.5300   10846.1579
1418.5700   10846.6741
1420.6200   10846.5761
1422.6600   10845.1251
1424.7000   10841.8781
1426.7400   10839.9862
1428.7800   10841.7523
1430.8300   10843.1268
1432.8700   10843.3684
1434.9100   10843.6384
1436.9500   10842.8969
1438.9900   10842.6049
1441.0300   10841.9481
1443.0800   10840.4330
1445.1200   10839.7741
1447.1600   10838.9005
1449.2000   10838.5353
1451.2400   10838.0481
1453.2900   10837.5425
1455.3300   10837.7194
1457.3700   10839.0731
1459.4100   10842.0341
1461.4500   10843.0559
1463.5000   10841.9175
1465.5400   10841.3446
1467.5800   10841.2677
1469.6200   10842.0439
1471.6600   10843.3728
1473.7100   10843.4228
1475.7500   10843.3241
1477.7900   10843.1435
1479.8300   10843.0552
1481.8700   10842.8068
1483.9100   10842.9711
1485.9600   10842.9001
1488.0000   10842.5933
1490.0400   10842.9375
1492.0800   10843.6051
1494.1200   10844.3008
1496.1700   10844.6763
1498.2100   10845.7166
1500.2500   10846.3999
1502.2900   10846.5477
1504.3300   10846.1854
1506.3800   10845.8568
1508.4200   10846.0850
1510.4600   10846.6629
1512.5000   10846.6892
1514.5400   10846.8012
1516.5900   10846.2945
1518.6300   10844.4278
1520.6700   10844.0007
1522.7100   10844.0869
1524.7500   10843.7027
1526.7900   10844.8916
1528.8400   10845.9317
1530.8800   10846.5343
1532.9200   10845.8385
1534.9600   10845.3959
1537.0000   10845.1252
1539.0500   10845.7115
1541.0900   10846.4637
1543.1300   10846.5442
1545.1700   10846.6310
1547.2100   10846.4587
