#----------------------------------
# BOTDR
# DSTS: v.07.1
# Fri Oct 22 13:51:55 2021
#
# Channel No  = 0
# Partial   = 0
# Partial Start  = 0.00
# Partial End  = 5118.55
# Fibre Length    [m]   = 5118.55  0.00
# Fiber Delay    [m]   = 118.55
# Connection Point    [m]   = 198.64
# Rpt.period      [us]  = 65
# Pulse width     [ns]  = 40
# Frequency Start [MHz] = 10690.00
# Frequency End:  [MHz] = 10990.00
# Frequency Step: [MHz] = 5.00
# No.Averages:    [-]   = 12000
# Sampling Rate   [-]   = 2 (50.00MSs, spatial step = 2.00m)
# Input Range     [-]   = 2 (1V)
# Pulse Delay     [m]   = 100
# Post Pulse Data [m]   = 0
# Fiber Type      [-]   = CH4 Land
# Fiber  temperature [C] = 27.00
# Fiber  Bril Frequency  [MHz] = 10840.00
# Fiber  Strain Coefficient  [ue/MHz] = 18.9150
# Fiber Temperature Coefficient [C/MHz] = 0.9765
# Fiber Refractive Index = 1.4682
# Fiber Sigma = 0.2000
#
#----------------------------------
2509

-118.5500   0.0000
-116.5500   0.0000
-114.5500   0.0000
-112.5500   0.0000
-110.5500   0.0000
-108.5500   0.0000
-106.5500   0.0000
-104.5500   0.0000
-102.5500   0.0000
-100.5500   0.0000
-98.5500   0.0000
-96.5500   0.0000
-94.5500   0.0000
-92.5500   0.0000
-90.5500   0.0000
-88.5500   0.0000
-86.5500   0.0000
-84.5500   0.0000
-82.5500   0.0000
-80.5500   0.0000
-78.5500   0.0000
-76.5500   0.0000
-74.5500   0.0000
-72.5500   0.0000
-70.5500   0.0000
-68.5500   0.0000
-66.5500   0.0000
-64.5500   0.0000
-62.5500   0.0000
-60.5500   0.0000
-58.5500   0.0000
-56.5500   0.0000
-54.5500   0.0000
-52.5500   0.0000
-50.5500   0.0000
-48.5500   0.0000
-46.5500   0.0000
-44.5500   0.0000
-42.5500   0.0000
-40.5500   0.0000
-38.5500   0.0000
-36.5500   0.0000
-34.5500   0.0000
-32.5500   0.0000
-30.5500   0.0000
-28.5500   0.0000
-26.5500   0.0000
-24.5500   0.0000
-22.5500   0.0000
-20.5500   0.0000
-18.5500   0.0000
-16.5500   0.0000
-14.5500   0.0000
-12.5500   0.0000
-10.5500   0.0000
-8.5500   0.0000
-6.5500   0.0000
-4.5500   0.0000
-2.5500   -105.8775
-0.5500   -81.0838
1.4900   78.1018
3.5300   882.2492
5.5800   1643.0799
7.6200   689.0411
9.6600   619.6570
11.7000   623.6508
13.7400   666.1623
15.7900   677.6632
17.8300   674.1742
19.8700   676.4561
21.9100   679.4530
23.9500   671.2684
25.9900   661.7576
28.0400   673.1703
30.0800   682.2320
32.1200   689.3249
34.1600   679.2854
36.2000   678.4823
38.2500   687.8785
40.2900   684.9278
42.3300   664.9632
44.3700   647.3216
46.4100   638.9047
48.4600   629.1349
50.5000   629.6159
52.5400   629.5957
54.5800   623.7095
56.6200   632.8075
58.6700   612.5250
60.7100   573.3550
62.7500   550.7665
64.7900   559.7530
66.8300   588.2172
68.8700   614.5965
70.9200   618.0034
72.9600   618.7840
75.0000   620.9282
77.0400   612.1019
79.0800   610.6861
81.1300   604.1629
83.1700   560.1415
85.2100   -19.5245
87.2500   -969.5659
89.2900   -1176.8266
91.3400   -532.0072
93.3800   17.4811
95.4200   32.0978
97.4600   39.2248
99.5000   52.8154
101.5500   60.8979
103.5900   63.2580
105.6300   55.9097
107.6700   46.9471
109.7100   35.9500
111.7500   35.5316
113.8000   47.9551
115.8400   53.4640
117.8800   64.4601
119.9200   86.1298
121.9600   94.5229
124.0100   98.9052
126.0500   99.4210
128.0900   107.6682
130.1300   118.8731
132.1700   130.4602
134.2200   119.6240
136.2600   117.2637
138.3000   129.4094
140.3400   113.5037
142.3800   99.4361
144.4300   149.7444
146.4700   176.5382
148.5100   165.9050
150.5500   159.8311
152.5900   156.1707
154.6300   157.5195
156.6800   146.4071
158.7200   139.5001
160.7600   176.7558
162.8000   195.6108
164.8400   158.9589
166.8900   124.8083
168.9300   124.6531
170.9700   147.8485
173.0100   215.5747
175.0500   258.8278
177.1000   266.5198
179.1400   233.7095
181.1800   183.9283
183.2200   175.3209
185.2600   199.8244
187.3100   205.6291
189.3500   207.6713
191.3900   231.7887
193.4300   234.9792
195.4700   186.0360
197.5100   134.1335
199.5600   135.6238
201.6000   161.9207
203.6400   201.5677
205.6800   200.2625
207.7200   172.6714
209.7700   159.9713
211.8100   157.9294
213.8500   165.5150
215.8900   170.4844
217.9300   185.2379
219.9800   178.2625
222.0200   168.3897
224.0600   181.3906
226.1000   210.4518
228.1400   205.1847
230.1900   184.7633
232.2300   165.6033
234.2700   150.9176
236.3100   143.3737
238.3500   145.9207
240.3900   153.9900
242.4400   148.6841
244.4800   125.4145
246.5200   90.8124
248.5600   90.4330
250.6000   111.8160
252.6500   153.6837
254.6900   168.0800
256.7300   128.0380
258.7700   116.4500
260.8100   121.1880
262.8600   129.4366
264.9000   149.5087
266.9400   160.7479
268.9800   169.9045
271.0200   176.6647
273.0700   187.9475
275.1100   211.6653
277.1500   236.0896
279.1900   250.7536
281.2300   264.6086
283.2700   262.4279
285.3200   254.5428
287.3600   233.4777
289.4000   218.0393
291.4400   218.2519
293.4800   216.9597
295.5300   219.1151
297.5700   218.9180
299.6100   227.7593
301.6500   241.0230
303.6900   245.2615
305.7400   241.4776
307.7800   244.4551
309.8200   244.8794
311.8600   242.9406
313.9000   241.0783
315.9500   231.7917
317.9900   231.5466
320.0300   242.3929
322.0700   241.8675
324.1100   231.8049
326.1500   233.9771
328.2000   236.6104
330.2400   249.6289
332.2800   259.5455
334.3200   268.1231
336.3600   269.5551
338.4100   265.8157
340.4500   277.8018
342.4900   293.4370
344.5300   299.5230
346.5700   300.3672
348.6200   296.5312
350.6600   296.6697
352.7000   296.2298
354.7400   293.3286
356.7800   288.3819
358.8300   287.6618
360.8700   276.7664
362.9100   257.1690
364.9500   242.7659
366.9900   233.6983
369.0300   229.9636
371.0800   235.4212
373.1200   223.6208
375.1600   226.2079
377.2000   233.8824
379.2400   218.9487
381.2900   194.1885
383.3300   189.4938
385.3700   185.8818
387.4100   184.6302
389.4500   177.4397
391.5000   176.0940
393.5400   178.8016
395.5800   187.3473
397.6200   187.5837
399.6600   190.6369
401.7100   193.6058
403.7500   201.1225
405.7900   197.6569
407.8300   214.0228
409.8700   223.7336
411.9100   211.7270
413.9600   196.8153
416.0000   198.4280
418.0400   202.7899
420.0800   196.8798
422.1200   194.8858
424.1700   195.8865
426.2100   200.9673
428.2500   197.6433
430.2900   191.4261
432.3300   192.1913
434.3800   207.6244
436.4200   212.6514
438.4600   216.5286
440.5000   238.9590
442.5400   290.5204
444.5900   322.4977
446.6300   332.5851
448.6700   336.4696
450.7100   347.8294
452.7500   341.6904
454.7900   330.0878
456.8400   337.5308
458.8800   337.4417
460.9200   324.7938
462.9600   308.4053
465.0000   295.6759
467.0500   286.3548
469.0900   246.2570
471.1300   103.2340
473.1700   -42.3957
475.2100   -86.1560
477.2600   -94.7675
479.3000   -109.6502
481.3400   -123.5414
483.3800   -127.6037
485.4200   -122.9511
487.4700   -116.4825
489.5100   -110.2884
491.5500   -115.3671
493.5900   -156.3281
495.6300   -202.6583
497.6700   -225.2587
499.7200   -230.5290
501.7600   -237.0958
503.8000   -254.6659
505.8400   -247.4552
507.8800   -242.3925
509.9300   -252.3329
511.9700   -250.5912
514.0100   -251.3625
516.0500   -254.9227
518.0900   -258.6623
520.1400   -259.9790
522.1800   -257.4745
524.2200   -246.5796
526.2600   -228.4970
528.3000   -233.6277
530.3500   -268.5118
532.3900   -274.4269
534.4300   -288.5337
536.4700   -318.9320
538.5100   -322.7393
540.5500   -299.0036
542.6000   -307.2383
544.6400   -319.2623
546.6800   -327.9263
548.7200   -337.6177
550.7600   -331.0082
552.8100   -280.3043
554.8500   -108.6664
556.8900   85.6223
558.9300   149.8291
560.9700   147.9551
563.0200   119.1386
565.0600   103.3661
567.1000   82.0860
569.1400   94.9411
571.1800   88.6246
573.2300   73.1934
575.2700   82.2536
577.3100   88.8068
579.3500   112.0424
581.3900   152.3823
583.4300   190.2317
585.4800   173.6885
587.5200   158.0795
589.5600   198.4525
591.6000   242.9372
593.6400   224.1905
595.6900   212.1545
597.7300   234.4003
599.7700   247.8451
601.8100   207.3055
603.8500   153.6995
605.9000   142.4460
607.9400   134.3778
609.9800   117.4114
612.0200   117.3731
614.0600   134.1843
616.1100   113.2696
618.1500   66.8450
620.1900   42.6217
622.2300   36.5844
624.2700   57.5881
626.3100   85.2187
628.3600   109.7857
630.4000   133.8498
632.4400   148.5657
634.4800   155.2127
636.5200   141.5286
638.5700   135.1602
640.6100   138.5409
642.6500   148.6957
644.6900   147.8553
646.7300   125.8573
648.7800   97.9005
650.8200   95.3439
652.8600   98.3499
654.9000   84.5080
656.9400   87.7513
658.9900   100.3729
661.0300   121.6303
663.0700   153.2494
665.1100   174.8689
667.1500   170.6276
669.1900   167.1841
671.2400   172.8098
673.2800   179.9109
675.3200   199.5403
677.3600   210.6884
679.4000   209.3283
681.4500   231.9098
683.4900   246.5331
685.5300   252.2464
687.5700   253.1493
689.6100   267.7213
691.6600   274.4482
693.7000   282.5930
695.7400   272.1206
697.7800   234.4044
699.8200   240.2714
701.8700   299.4440
703.9100   346.2673
705.9500   367.6842
707.9900   407.3521
710.0300   445.2305
712.0700   442.0166
714.1200   440.0887
716.1600   431.8680
718.2000   418.2666
720.2400   405.9011
722.2800   406.2677
724.3300   407.5771
726.3700   402.5099
728.4100   379.3631
730.4500   375.6699
732.4900   375.5842
734.5400   373.2718
736.5800   377.3988
738.6200   390.6294
740.6600   396.0949
742.7000   402.3938
744.7500   400.3038
746.7900   382.1868
748.8300   359.7072
750.8700   346.3505
752.9100   343.2305
754.9500   346.1761
757.0000   338.5812
759.0400   325.0331
761.0800   309.4514
763.1200   311.3929
765.1600   320.9545
767.2100   320.6363
769.2500   322.4777
771.2900   317.6152
773.3300   307.0847
775.3700   288.1553
777.4200   278.8439
779.4600   271.0532
781.5000   263.9946
783.5400   262.8490
785.5800   267.7101
787.6300   274.0212
789.6700   268.0471
791.7100   261.6474
793.7500   267.8533
795.7900   264.6831
797.8300   244.7494
799.8800   225.4693
801.9200   258.8738
803.9600   293.9228
806.0000   305.7581
808.0400   302.5066
810.0900   298.3812
812.1300   275.0166
814.1700   262.5908
816.2100   272.9633
818.2500   286.6423
820.3000   282.0962
822.3400   274.7549
824.3800   267.1560
826.4200   265.1955
828.4600   280.5105
830.5100   296.5419
832.5500   283.4244
834.5900   272.7112
836.6300   281.1508
838.6700   271.3785
840.7100   247.0179
842.7600   237.5176
844.8000   246.3982
846.8400   258.1713
848.8800   270.5865
850.9200   267.8887
852.9700   258.3787
855.0100   267.6508
857.0500   290.7923
859.0900   281.2043
861.1300   268.6317
863.1800   253.4013
865.2200   234.6406
867.2600   213.5075
869.3000   235.1248
871.3400   262.1325
873.3900   272.8215
875.4300   279.4005
877.4700   286.0377
879.5100   312.1329
881.5500   327.9439
883.5900   259.3323
885.6400   191.0489
887.6800   166.3000
889.7200   181.4405
891.7600   212.6444
893.8000   241.9605
895.8500   275.8100
897.8900   313.2118
899.9300   310.2277
901.9700   276.7494
904.0100   269.5598
906.0600   288.5317
908.1000   302.6788
910.1400   285.8849
912.1800   234.7607
914.2200   161.6850
916.2700   130.2028
918.3100   148.1328
920.3500   160.1498
922.3900   176.2490
924.4300   183.6288
926.4700   212.9247
928.5200   254.2078
930.5600   221.7643
932.6000   177.9244
934.6400   166.8519
936.6800   158.0841
938.7300   136.1375
940.7700   143.1754
942.8100   155.1427
944.8500   154.7221
946.8900   159.3123
948.9400   169.7316
950.9800   211.1981
953.0200   242.7953
955.0600   215.7115
957.1000   182.6074
959.1500   172.6801
961.1900   169.8375
963.2300   140.5132
965.2700   144.8081
967.3100   224.2637
969.3500   359.9330
971.4000   443.1258
973.4400   445.4994
975.4800   433.9017
977.5200   380.8811
979.5600   288.1335
981.6100   243.2002
983.6500   220.7086
985.6900   212.5149
987.7300   186.7398
989.7700   207.4299
991.8200   238.2576
993.8600   244.7230
995.9000   227.2273
997.9400   210.7073
999.9800   222.9052
1002.0300   216.5351
1004.0700   156.2228
1006.1100   123.1213
1008.1500   107.9227
1010.1900   93.9675
1012.2300   72.9355
1014.2800   85.8069
1016.3200   130.0466
1018.3600   170.2025
1020.4000   198.6589
1022.4400   208.6698
1024.4900   241.2401
1026.5300   266.6760
1028.5700   233.1163
1030.6100   225.5372
1032.6500   222.8896
1034.7000   192.7838
1036.7400   168.4834
1038.7800   189.8575
1040.8200   221.1611
1042.8600   227.0756
1044.9100   235.7787
1046.9500   250.5370
1048.9900   284.2911
1051.0300   277.1019
1053.0700   215.3586
1055.1100   166.1891
1057.1600   114.3248
1059.2000   68.4401
1061.2400   47.4001
1063.2800   42.4616
1065.3200   68.6363
1067.3700   96.5666
1069.4100   124.1438
1071.4500   170.6374
1073.4900   227.3807
1075.5300   240.6943
1077.5800   222.3670
1079.6200   224.7160
1081.6600   225.0808
1083.7000   187.6712
1085.7400   180.6371
1087.7900   222.8547
1089.8300   252.7048
1091.8700   255.3911
1093.9100   265.9008
1095.9500   295.2632
1097.9900   327.8441
1100.0400   312.4413
1102.0800   278.5951
1104.1200   252.9241
1106.1600   238.4557
1108.2000   204.8730
1110.2500   196.0284
1112.2900   222.1492
1114.3300   233.0598
1116.3700   235.3560
1118.4100   237.2034
1120.4600   251.2068
1122.5000   275.2519
1124.5400   239.8078
1126.5800   192.3025
1128.6200   125.0126
1130.6700   64.4914
1132.7100   43.3635
1134.7500   93.3397
1136.7900   171.3600
1138.8300   198.5581
1140.8700   216.9531
1142.9200   241.6321
1144.9600   292.2605
1147.0000   316.7922
1149.0400   265.2920
1151.0800   208.4776
1153.1300   192.3917
1155.1700   185.0570
1157.2100   162.0926
1159.2500   150.3924
1161.2900   183.5854
1163.3400   208.0412
1165.3800   190.8828
1167.4200   185.5323
1169.4600   221.4456
1171.5000   231.0598
1173.5500   216.3218
1175.5900   204.9129
1177.6300   184.3364
1179.6700   161.1058
1181.7100   139.7886
1183.7500   148.1413
1185.8000   167.2057
1187.8400   176.4182
1189.8800   190.5667
1191.9200   214.8880
1193.9600   265.1749
1196.0100   280.2217
1198.0500   253.4152
1200.0900   238.8283
1202.1300   211.9103
1204.1700   161.6928
1206.2200   129.2385
1208.2600   161.0534
1210.3000   189.8930
1212.3400   192.4156
1214.3800   203.6585
1216.4300   214.0498
1218.4700   243.1034
1220.5100   243.6810
1222.5500   213.7689
1224.5900   197.6156
1226.6300   179.9024
1228.6800   158.6352
1230.7200   160.7398
1232.7600   200.0329
1234.8000   221.5172
1236.8400   204.5245
1238.8900   194.0059
1240.9300   215.2018
1242.9700   271.4020
1245.0100   282.8616
1247.0500   252.4778
1249.1000   226.3607
1251.1400   206.1708
1253.1800   175.1955
1255.2200   169.8108
1257.2600   231.5284
1259.3100   263.3749
1261.3500   261.9479
1263.3900   256.1414
1265.4300   283.3423
1267.4700   321.5060
1269.5100   285.6681
1271.5600   231.9405
1273.6000   211.8718
1275.6400   203.1039
1277.6800   170.6837
1279.7200   157.2669
1281.7700   191.4277
1283.8100   221.8414
1285.8500   225.8055
1287.8900   227.8002
1289.9300   252.0142
1291.9800   303.3418
1294.0200   303.0600
1296.0600   259.8872
1298.1000   231.5503
1300.1400   219.9821
1302.1900   192.0653
1304.2300   175.8835
1306.2700   197.8481
1308.3100   218.3140
1310.3500   221.3829
1312.3900   213.5658
1314.4400   221.4994
1316.4800   267.4345
1318.5200   254.0379
1320.5600   231.8973
1322.6000   232.4317
1324.6500   196.0637
1326.6900   137.8734
1328.7300   128.9926
1330.7700   164.4232
1332.8100   190.3140
1334.8600   215.1042
1336.9000   250.5216
1338.9400   309.4604
1340.9800   366.5630
1343.0200   357.0975
1345.0700   282.8490
1347.1100   227.8165
1349.1500   185.0481
1351.1900   146.6325
1353.2300   154.6663
1355.2700   206.6223
1357.3200   284.4199
1359.3600   357.6219
1361.4000   388.2028
1363.4400   405.3341
1365.4800   421.1241
1367.5300   429.6305
1369.5700   431.2166
1371.6100   396.3338
1373.6500   352.0354
1375.6900   327.3315
1377.7400   300.3714
1379.7800   309.6567
1381.8200   336.9829
1383.8600   355.2374
1385.9000   353.6983
1387.9500   333.2559
1389.9900   313.5109
1392.0300   306.9606
1394.0700   314.2937
1396.1100   270.2451
1398.1500   207.5161
1400.2000   185.4603
1402.2400   233.8892
1404.2800   293.0114
1406.3200   322.2304
1408.3600   341.2567
1410.4100   326.2765
1412.4500   284.7745
1414.4900   262.4142
1416.5300   251.5274
1418.5700   296.2182
1420.6200   364.4180
1422.6600   344.3675
1424.7000   227.1242
1426.7400   146.3659
1428.7800   177.8492
1430.8300   221.5074
1432.8700   252.4670
1434.9100   269.1976
1436.9500   265.9354
1438.9900   260.6079
1441.0300   244.6911
1443.0800   204.1331
1445.1200   165.2948
1447.1600   164.8243
1449.2000   184.9291
1451.2400   161.4031
1453.2900   147.5365
1455.3300   139.1885
1457.3700   145.8715
1459.4100   194.2509
1461.4500   209.0854
1463.5000   191.2116
1465.5400   175.6478
1467.5800   163.1829
1469.6200   164.8727
1471.6600   188.8080
1473.7100   223.9084
1475.7500   284.2589
1477.7900   312.8348
1479.8300   337.6655
1481.8700   338.8613
1483.9100   308.6725
1485.9600   286.3142
1488.0000   270.4100
1490.0400   307.3344
1492.0800   364.3888
1494.1200   383.0919
1496.1700   388.6497
1498.2100   373.8569
1500.2500   357.2025
1502.2900   359.3931
1504.3300   386.5173
1506.3800   412.3583
1508.4200   387.6343
1510.4600   350.7145
1512.5000   317.4583
1514.5400   299.0912
1516.5900   330.5740
1518.6300   380.4295
1520.6700   424.4846
1522.7100   458.2787
1524.7500   483.8216
1526.7900   505.2961
1528.8400   492.1150
1530.8800   456.4635
1532.9200   407.1439
1534.9600   331.5278
1537.0000   274.8271
1539.0500   270.0904
1541.0900   265.5579
1543.1300   253.7109
1545.1700   249.1913
1547.2100   267.8540
1549.2600   278.9006
1551.3000   290.9834
1553.3400   292.5578
1555.3800   297.0315
1557.4200   277.3406
1559.4700   255.2642
1561.5100   222.6972
1563.5500   121.8668
1565.5900   17.4454
1567.6300   20.7539
1569.6700   21.4499
1571.7200   8.5706
1573.7600   -10.3153
1575.8000   -12.3854
1577.8400   7.8335
1579.8800   24.1352
1581.9300   43.9143
1583.9700   66.0250
1586.0100   63.5342
1588.0500   -3.7438
1590.0900   -36.2089
1592.1400   38.1771
1594.1800   91.2162
1596.2200   62.4671
1598.2600   60.8520
1600.3000   55.3933
1602.3500   55.2718
1604.3900   13.6518
1606.4300   -60.9650
1608.4700   -86.0880
1610.5100   -92.8581
1612.5500   -114.6068
1614.6000   -108.2281
1616.6400   -73.8254
1618.6800   -12.6301
1620.7200   28.1771
1622.7600   40.7512
1624.8100   110.0692
1626.8500   164.4104
1628.8900   151.2107
1630.9300   124.2787
1632.9700   105.7925
1635.0200   106.4205
1637.0600   109.8294
1639.1000   106.0403
1641.1400   100.3760
1643.1800   83.6660
1645.2300   60.2302
1647.2700   50.3166
1649.3100   44.6961
1651.3500   37.7756
1653.3900   43.2955
1655.4300   67.3900
1657.4800   91.6316
1659.5200   76.2147
1661.5600   70.8094
1663.6000   131.2436
1665.6400   177.8081
1667.6900   151.7792
1669.7300   131.9059
1671.7700   198.4177
1673.8100   230.2755
1675.8500   101.3654
1677.9000   62.7175
1679.9400   186.6984
1681.9800   257.4444
1684.0200   231.4878
1686.0600   207.1635
1688.1100   226.6399
1690.1500   294.2746
1692.1900   349.9898
1694.2300   378.1161
1696.2700   399.4899
1698.3100   427.7407
1700.3600   484.7530
1702.4000   519.7390
1704.4400   504.2842
1706.4800   496.0414
1708.5200   450.7137
1710.5700   432.3455
1712.6100   471.9118
