#----------------------------------
# BOTDR
# DSTS: v.07.1
# Fri Oct 22 14:46:58 2021
#
# Channel No  = 0
# Partial   = 0
# Partial Start  = 0.00
# Partial End  = 4118.55
# Fibre Length    [m]   = 4118.55  0.00
# Fiber Delay    [m]   = 118.55
# Connection Point    [m]   = 198.64
# Rpt.period      [us]  = 65
# Pulse width     [ns]  = 40
# Frequency Start [MHz] = 10690.00
# Frequency End:  [MHz] = 10990.00
# Frequency Step: [MHz] = 5.00
# No.Averages:    [-]   = 12000
# Sampling Rate   [-]   = 0 (200.00MSs, spatial step = 0.50m)
# Input Range     [-]   = 2 (1V)
# Pulse Delay     [m]   = 100
# Post Pulse Data [m]   = 0
# Fiber Type      [-]   = CH4 Land
# Fiber  temperature [C] = 27.00
# Fiber  Bril Frequency  [MHz] = 10840.00
# Fiber  Strain Coefficient  [ue/MHz] = 18.9150
# Fiber Temperature Coefficient [C/MHz] = 0.9765
# Fiber Refractive Index = 1.4682
# Fiber Sigma = 0.2000
#
#----------------------------------
8074

-118.5500   10840.0000
-118.0500   10840.0000
-117.5500   10840.0000
-117.0500   10840.0000
-116.5500   10840.0000
-116.0500   10840.0000
-115.5500   10840.0000
-115.0500   10840.0000
-114.5500   10840.0000
-114.0500   10840.0000
-113.5500   10840.0000
-113.0500   10840.0000
-112.5500   10840.0000
-112.0500   10840.0000
-111.5500   10840.0000
-111.0500   10840.0000
-110.5500   10840.0000
-110.0500   10840.0000
-109.5500   10840.0000
-109.0500   10840.0000
-108.5500   10840.0000
-108.0500   10840.0000
-107.5500   10840.0000
-107.0500   10840.0000
-106.5500   10840.0000
-106.0500   10840.0000
-105.5500   10840.0000
-105.0500   10840.0000
-104.5500   10840.0000
-104.0500   10840.0000
-103.5500   10840.0000
-103.0500   10840.0000
-102.5500   10840.0000
-102.0500   10840.0000
-101.5500   10840.0000
-101.0500   10840.0000
-100.5500   10840.0000
-100.0500   10840.0000
-99.5500   10840.0000
-99.0500   10840.0000
-98.5500   10840.0000
-98.0500   10840.0000
-97.5500   10840.0000
-97.0500   10840.0000
-96.5500   10840.0000
-96.0500   10840.0000
-95.5500   10840.0000
-95.0500   10840.0000
-94.5500   10840.0000
-94.0500   10840.0000
-93.5500   10840.0000
-93.0500   10840.0000
-92.5500   10840.0000
-92.0500   10840.0000
-91.5500   10840.0000
-91.0500   10840.0000
-90.5500   10840.0000
-90.0500   10840.0000
-89.5500   10840.0000
-89.0500   10840.0000
-88.5500   10840.0000
-88.0500   10840.0000
-87.5500   10840.0000
-87.0500   10840.0000
-86.5500   10840.0000
-86.0500   10840.0000
-85.5500   10840.0000
-85.0500   10840.0000
-84.5500   10840.0000
-84.0500   10840.0000
-83.5500   10840.0000
-83.0500   10840.0000
-82.5500   10840.0000
-82.0500   10840.0000
-81.5500   10840.0000
-81.0500   10840.0000
-80.5500   10840.0000
-80.0500   10840.0000
-79.5500   10840.0000
-79.0500   10840.0000
-78.5500   10840.0000
-78.0500   10840.0000
-77.5500   10840.0000
-77.0500   10840.0000
-76.5500   10840.0000
-76.0500   10840.0000
-75.5500   10840.0000
-75.0500   10840.0000
-74.5500   10840.0000
-74.0500   10840.0000
-73.5500   10840.0000
-73.0500   10840.0000
-72.5500   10840.0000
-72.0500   10840.0000
-71.5500   10840.0000
-71.0500   10840.0000
-70.5500   10840.0000
-70.0500   10840.0000
-69.5500   10840.0000
-69.0500   10840.0000
-68.5500   10840.0000
-68.0500   10840.0000
-67.5500   10840.0000
-67.0500   10840.0000
-66.5500   10840.0000
-66.0500   10840.0000
-65.5500   10840.0000
-65.0500   10840.0000
-64.5500   10840.0000
-64.0500   10840.0000
-63.5500   10840.0000
-63.0500   10840.0000
-62.5500   10840.0000
-62.0500   10840.0000
-61.5500   10840.0000
-61.0500   10840.0000
-60.5500   10840.0000
-60.0500   10840.0000
-59.5500   10840.0000
-59.0500   10840.0000
-58.5500   10840.0000
-58.0500   10840.0000
-57.5500   10840.0000
-57.0500   10840.0000
-56.5500   10840.0000
-56.0500   10840.0000
-55.5500   10840.0000
-55.0500   10840.0000
-54.5500   10840.0000
-54.0500   10840.0000
-53.5500   10840.0000
-53.0500   10840.0000
-52.5500   10840.0000
-52.0500   10840.0000
-51.5500   10840.0000
-51.0500   10840.0000
-50.5500   10840.0000
-50.0500   10840.0000
-49.5500   10840.0000
-49.0500   10840.0000
-48.5500   10840.0000
-48.0500   10840.0000
-47.5500   10840.0000
-47.0500   10840.0000
-46.5500   10840.0000
-46.0500   10840.0000
-45.5500   10840.0000
-45.0500   10840.0000
-44.5500   10840.0000
-44.0500   10840.0000
-43.5500   10840.0000
-43.0500   10840.0000
-42.5500   10840.0000
-42.0500   10840.0000
-41.5500   10840.0000
-41.0500   10840.0000
-40.5500   10840.0000
-40.0500   10840.0000
-39.5500   10840.0000
-39.0500   10840.0000
-38.5500   10840.0000
-38.0500   10840.0000
-37.5500   10840.0000
-37.0500   10840.0000
-36.5500   10840.0000
-36.0500   10840.0000
-35.5500   10840.0000
-35.0500   10840.0000
-34.5500   10840.0000
-34.0500   10840.0000
-33.5500   10840.0000
-33.0500   10840.0000
-32.5500   10840.0000
-32.0500   10840.0000
-31.5500   10840.0000
-31.0500   10840.0000
-30.5500   10840.0000
-30.0500   10840.0000
-29.5500   10840.0000
-29.0500   10840.0000
-28.5500   10840.0000
-28.0500   10840.0000
-27.5500   10840.0000
-27.0500   10840.0000
-26.5500   10840.0000
-26.0500   10840.0000
-25.5500   10840.0000
-25.0500   10840.0000
-24.5500   10840.0000
-24.0500   10840.0000
-23.5500   10840.0000
-23.0500   10840.0000
-22.5500   10840.0000
-22.0500   10840.0000
-21.5500   10840.0000
-21.0500   10840.0000
-20.5500   10840.0000
-20.0500   10840.0000
-19.5500   10840.0000
-19.0500   10840.0000
-18.5500   10840.0000
-18.0500   10840.0000
-17.5500   10840.0000
-17.0500   10840.0000
-16.5500   10840.0000
-16.0500   10840.0000
-15.5500   10840.0000
-15.0500   10840.0000
-14.5500   10840.0000
-14.0500   10840.0000
-13.5500   10840.0000
-13.0500   10840.0000
-12.5500   10840.0000
-12.0500   10840.0000
-11.5500   10840.0000
-11.0500   10840.0000
-10.5500   10840.0000
-10.0500   10840.0000
-9.5500   10840.0000
-9.0500   10840.0000
-8.5500   10840.0000
-8.0500   10840.0000
-7.5500   10840.0000
-7.0500   10840.0000
-6.5500   10840.0000
-6.0500   10840.0000
-5.5500   10840.0000
-5.0500   10840.0000
-4.5500   10840.0000
-4.0500   10840.0000
-3.5500   10840.0000
-3.0500   10840.0000
-2.5500   10840.0000
-2.0500   10840.0000
-1.5500   10840.0000
-1.0500   10810.6027
-0.5500   10810.2457
-0.0500   10809.7235
0.4600   10809.2816
0.9700   10808.6265
1.4800   10808.1081
1.9900   10807.4354
2.5000   10807.3346
3.0100   10807.2868
3.5200   10808.7935
4.0300   10810.8651
4.5400   10815.9621
5.0500   10820.9983
5.5700   10826.3655
6.0800   10828.4346
6.5900   10829.9108
7.1000   10830.1250
7.6100   10830.5301
8.1200   10830.4718
8.6300   10830.8536
9.1400   10830.8900
9.6500   10831.4549
10.1600   10831.5744
10.6700   10832.0790
11.1800   10832.1512
11.6900   10832.7255
12.2000   10832.9635
12.7100   10833.7988
13.2200   10834.2935
13.7300   10835.3480
14.2400   10835.8891
14.7500   10836.6861
15.2600   10836.9101
15.7700   10837.3588
16.2900   10837.3150
16.8000   10837.5598
17.3100   10837.5279
17.8200   10837.7744
18.3300   10837.7507
18.8400   10837.9529
19.3500   10837.9037
19.8600   10838.0480
20.3700   10837.8684
20.8800   10837.9256
21.3900   10837.7432
21.9000   10837.7481
22.4100   10837.6057
22.9200   10837.6840
23.4300   10837.5375
23.9400   10837.6358
24.4500   10837.5094
24.9600   10837.5308
25.4700   10837.3450
25.9800   10837.2596
26.4900   10837.0236
27.0100   10836.9653
27.5200   10836.7551
28.0300   10836.7890
28.5400   10836.7007
29.0500   10836.8515
29.5600   10836.8572
30.0700   10837.0283
30.5800   10837.0318
31.0900   10837.2474
31.6000   10837.2330
32.1100   10837.4264
32.6200   10837.4037
33.1300   10837.6306
33.6400   10837.6324
34.1500   10837.8327
34.6600   10837.8680
35.1700   10838.1761
35.6800   10838.2596
36.1900   10838.5813
36.7000   10838.6990
37.2100   10839.0523
37.7300   10839.2438
38.2400   10839.6088
38.7500   10839.7380
39.2600   10839.9912
39.7700   10839.9474
40.2800   10839.9951
40.7900   10839.7807
41.3000   10839.7575
41.8100   10839.5145
42.3200   10839.5513
42.8300   10839.4240
43.3400   10839.5569
43.8500   10839.5170
44.3600   10839.6337
44.8700   10839.5367
45.3800   10839.5434
45.8900   10839.3710
46.4000   10839.3587
46.9100   10839.2026
47.4200   10839.2342
47.9300   10839.1225
48.4500   10839.1846
48.9600   10839.0707
49.4700   10839.1540
49.9800   10839.0594
50.4900   10839.1185
51.0000   10839.0565
51.5100   10839.1623
52.0200   10839.1030
52.5300   10839.1632
53.0400   10839.0766
53.5500   10839.2055
54.0600   10839.1088
54.5700   10839.2543
55.0800   10839.2294
55.5900   10839.3973
56.1000   10839.3743
56.6100   10839.4742
57.1200   10839.3481
57.6300   10839.2887
58.1400   10839.0583
58.6500   10838.9723
59.1700   10838.7584
59.6800   10838.7082
60.1900   10838.6159
60.7000   10838.6412
61.2100   10838.5191
61.7200   10838.5916
62.2300   10838.5271
62.7400   10838.6143
63.2500   10838.5878
63.7600   10838.6960
64.2700   10838.6557
64.7800   10838.7681
65.2900   10838.6819
65.8000   10838.7918
66.3100   10838.7247
66.8200   10838.8345
67.3300   10838.7844
67.8400   10838.9302
68.3500   10838.8642
68.8600   10838.9633
69.3700   10838.9242
69.8900   10839.0724
70.4000   10839.0551
70.9100   10839.2240
71.4200   10839.1854
71.9300   10839.2696
72.4400   10839.1648
72.9500   10839.2275
73.4600   10839.0918
73.9700   10839.0817
74.4800   10838.9713
74.9900   10839.0063
75.5000   10838.8923
76.0100   10838.9476
76.5200   10838.8310
77.0300   10838.8107
77.5400   10838.6647
78.0500   10838.5856
78.5600   10838.3931
79.0700   10838.2702
79.5800   10837.9720
80.0900   10837.6949
80.6100   10837.3049
81.1200   10836.9615
81.6300   10836.4899
82.1400   10836.1734
82.6500   10835.7203
83.1600   10835.3673
83.6700   10834.9085
84.1800   10834.2905
84.6900   10833.4455
85.2000   10831.9271
85.7100   10828.7018
86.2200   10806.1462
86.7300   10791.9518
87.2400   10770.2373
87.7500   10760.7468
88.2600   10759.1949
88.7700   10758.4221
89.2800   10757.5894
89.7900   10756.4043
90.3000   10753.9006
90.8100   10750.0396
91.3300   10748.6199
91.8400   10757.8901
92.3500   10786.7494
92.8600   10811.0718
93.3700   10814.0921
93.8800   10815.2117
94.3900   10816.0490
94.9000   10816.2681
95.4100   10816.4299
95.9200   10816.3572
96.4300   10816.3895
96.9400   10816.3217
97.4500   10816.4661
97.9600   10816.5459
98.4700   10816.8610
98.9800   10817.0160
99.4900   10817.5108
100.0000   10817.6637
100.5100   10818.0753
101.0200   10818.1588
101.5300   10818.4466
102.0500   10818.4378
102.5600   10818.5318
103.0700   10818.4227
103.5800   10818.4649
104.0900   10818.2757
104.6000   10818.2750
105.1100   10818.0723
105.6200   10818.0225
106.1300   10817.7908
106.6400   10817.7530
107.1500   10817.5529
107.6600   10817.5434
108.1700   10817.4200
108.6800   10817.5023
109.1900   10817.4128
109.7000   10817.4687
110.2100   10817.3285
110.7200   10817.3950
111.2300   10817.2545
111.7400   10817.3366
112.2500   10817.2674
112.7700   10817.4309
113.2800   10817.4020
113.7900   10817.6497
114.3000   10817.6516
114.8100   10817.9318
115.3200   10817.9864
115.8300   10818.3037
116.3400   10818.2970
116.8500   10818.5649
117.3600   10818.5886
117.8700   10818.8813
118.3800   10818.8570
118.8900   10819.0850
119.4000   10819.0040
119.9100   10819.1851
120.4200   10819.0578
120.9300   10819.1711
121.4400   10819.0321
121.9500   10819.1456
122.4600   10819.0521
122.9700   10819.1719
123.4900   10819.0974
124.0000   10819.2580
124.5100   10819.1868
125.0200   10819.4068
125.5300   10819.3867
126.0400   10819.6565
126.5500   10819.6930
127.0600   10819.9926
127.5700   10820.0045
128.0800   10820.2430
128.5900   10820.2119
129.1000   10820.4091
129.6100   10820.3433
130.1200   10820.5791
130.6300   10820.5513
131.1400   10820.8407
131.6500   10820.8400
132.1600   10821.1543
132.6700   10821.1455
133.1800   10821.4249
133.6900   10821.3916
134.2100   10821.7174
134.7200   10821.6581
135.2300   10821.8661
135.7400   10821.6982
136.2500   10821.7138
136.7600   10821.4484
137.2700   10821.3937
137.7800   10821.1283
138.2900   10821.0990
138.8000   10820.9241
139.3100   10820.9905
139.8200   10820.8337
140.3300   10820.9763
140.8400   10820.8912
141.3500   10821.0426
141.8600   10820.9463
142.3700   10821.1426
142.8800   10821.0938
143.3900   10821.5044
143.9000   10821.7360
144.4100   10822.4718
144.9300   10822.8819
145.4400   10823.6999
145.9500   10823.9739
146.4600   10824.6041
146.9700   10824.6293
147.4800   10824.8870
147.9900   10824.7391
148.5000   10824.8554
149.0100   10824.6219
149.5200   10824.7329
150.0300   10824.4490
150.5400   10824.4629
151.0500   10824.0463
151.5600   10823.8536
152.0700   10823.3456
152.5800   10823.0258
153.0900   10822.4985
153.6000   10822.1428
154.1100   10821.6522
154.6200   10821.3467
155.1300   10820.9500
155.6500   10820.8365
156.1600   10820.6502
156.6700   10820.7733
157.1800   10820.7120
157.6900   10820.8812
158.2000   10820.7620
158.7100   10820.7353
159.2200   10820.5289
159.7300   10820.4801
160.2400   10820.2392
160.7500   10820.2711
161.2600   10820.2086
161.7700   10820.4538
162.2800   10820.4497
162.7900   10820.6626
163.3000   10820.5498
163.8100   10820.5997
164.3200   10820.3437
164.8300   10820.4050
165.3400   10820.1899
165.8500   10820.2669
166.3700   10820.1301
166.8800   10820.2743
167.3900   10820.1458
167.9000   10820.3357
168.4100   10820.3039
168.9200   10820.7905
169.4300   10820.9713
169.9400   10821.7059
170.4500   10821.9981
170.9600   10822.7674
171.4700   10822.9846
171.9800   10823.5971
172.4900   10823.6643
173.0000   10824.1094
173.5100   10824.0218
174.0200   10824.3846
174.5300   10824.2965
175.0400   10824.6172
175.5500   10824.5148
176.0600   10824.8126
176.5700   10824.6959
177.0900   10824.9379
177.6000   10824.7500
178.1100   10824.9551
178.6200   10824.7107
179.1300   10824.9449
179.6400   10824.8015
180.1500   10825.1590
180.6600   10825.1753
181.1700   10825.5177
181.6800   10825.4422
182.1900   10825.6782
182.7000   10825.4897
183.2100   10825.5847
183.7200   10825.3543
184.2300   10825.4376
184.7400   10825.2178
185.2500   10825.3901
185.7600   10825.1796
186.2700   10825.3093
186.7800   10825.0524
187.2900   10825.0581
187.8100   10824.7796
188.3200   10824.7277
188.8300   10824.4681
189.3400   10824.5592
189.8500   10824.4210
190.3600   10824.6104
190.8700   10824.4682
191.3800   10824.6173
191.8900   10824.4517
192.4000   10824.5848
192.9100   10824.4182
193.4200   10824.6652
193.9300   10824.5731
194.4400   10824.7678
194.9500   10824.6407
195.4600   10824.8820
195.9700   10824.7677
196.4800   10824.9862
196.9900   10824.8025
197.5000   10824.9793
198.0100   10824.7514
198.5300   10824.9519
199.0400   10824.8491
199.5500   10825.1103
200.0600   10825.0538
200.5700   10825.3269
201.0800   10825.2091
201.5900   10825.4030
202.1000   10825.2455
202.6100   10825.3365
203.1200   10825.1212
203.6300   10825.1591
204.1400   10824.9402
204.6500   10825.1125
205.1600   10824.9499
205.6700   10825.1518
206.1800   10825.0399
206.6900   10825.2219
207.2000   10825.1249
207.7100   10825.3853
208.2200   10825.2496
208.7300   10825.5036
209.2500   10825.4150
209.7600   10825.5822
210.2700   10825.3997
210.7800   10825.4827
211.2900   10825.2553
211.8000   10825.3821
212.3100   10825.1830
212.8200   10825.3914
213.3300   10825.2525
213.8400   10825.4746
214.3500   10825.3216
214.8600   10825.5301
215.3700   10825.3967
215.8800   10825.5996
216.3900   10825.4791
216.9000   10825.7202
217.4100   10825.5859
217.9200   10825.8219
218.4300   10825.6423
218.9400   10825.8247
219.4500   10825.5839
219.9700   10825.6191
220.4800   10825.2460
220.9900   10825.1564
221.5000   10824.7255
222.0100   10824.6315
222.5200   10824.3034
223.0300   10824.2402
223.5400   10823.9208
224.0500   10823.8944
224.5600   10823.5916
225.0700   10823.5930
225.5800   10823.4003
226.0900   10823.6306
226.6000   10823.5832
227.1100   10823.8018
227.6200   10823.6630
228.1300   10823.7630
228.6400   10823.4312
229.1500   10823.3814
229.6600   10823.0165
230.1700   10822.9072
230.6900   10822.6565
231.2000   10822.7146
231.7100   10822.6125
232.2200   10822.8912
232.7300   10822.9456
233.2400   10823.3974
233.7500   10823.5275
234.2600   10823.9376
234.7700   10823.8554
235.2800   10824.0220
235.7900   10823.7928
236.3000   10823.8435
236.8100   10823.6842
237.3200   10823.8069
237.8300   10823.7222
238.3400   10823.9742
238.8500   10823.9748
239.3600   10824.3559
239.8700   10824.3816
240.3800   10824.7566
240.8900   10824.7062
241.4100   10825.0079
241.9200   10824.8481
242.4300   10824.9674
242.9400   10824.6749
243.4500   10824.6854
243.9600   10824.3556
244.4700   10824.2983
244.9800   10823.8850
245.4900   10823.6646
246.0000   10823.1419
246.5100   10822.8391
247.0200   10822.2953
247.5300   10822.0181
248.0400   10821.6050
248.5500   10821.5798
249.0600   10821.4522
249.5700   10821.6495
250.0800   10821.7029
250.5900   10821.9557
251.1000   10821.9791
251.6100   10822.1837
252.1300   10822.1674
252.6400   10822.4115
253.1500   10822.3556
253.6600   10822.6625
254.1700   10822.7149
254.6800   10823.0582
255.1900   10823.0702
255.7000   10823.3292
256.2100   10823.1805
256.7200   10823.2276
257.2300   10822.9410
257.7400   10822.9531
258.2500   10822.7069
258.7600   10822.8105
259.2700   10822.6466
259.7800   10822.7512
260.2900   10822.6490
260.8000   10822.7439
261.3100   10822.5761
261.8200   10822.6962
262.3300   10822.5509
262.8500   10822.6987
263.3600   10822.5692
263.8700   10822.7368
264.3800   10822.6829
264.8900   10822.9624
265.4000   10822.9286
265.9100   10823.2567
266.4200   10823.1834
266.9300   10823.3661
267.4400   10823.2380
267.9500   10823.3577
268.4600   10823.1124
268.9700   10823.1083
269.4800   10822.8464
269.9900   10822.9213
270.5000   10822.7304
271.0100   10822.9260
271.5200   10822.8709
272.0300   10823.0942
272.5400   10823.0581
273.0500   10823.3245
273.5700   10823.2122
274.0800   10823.3925
274.5900   10823.2398
275.1000   10823.3365
275.6100   10823.0991
276.1200   10823.2000
276.6300   10822.9386
277.1400   10822.9426
277.6500   10822.6417
278.1600   10822.5763
278.6700   10822.2561
279.1800   10822.2521
279.6900   10822.0690
280.2000   10822.2047
280.7100   10822.0839
281.2200   10822.3322
281.7300   10822.2497
282.2400   10822.5041
282.7500   10822.4002
283.2600   10822.6338
283.7700   10822.4834
284.2900   10822.6775
284.8000   10822.5825
285.3100   10822.8333
285.8200   10822.8094
286.3300   10823.1935
286.8400   10823.2006
287.3500   10823.4920
287.8600   10823.4354
288.3700   10823.6073
288.8800   10823.3482
289.3900   10823.3461
289.9000   10823.0152
290.4100   10822.9289
290.9200   10822.6246
291.4300   10822.7001
291.9400   10822.5019
292.4500   10822.6888
292.9600   10822.6040
293.4700   10822.8513
293.9800   10822.8301
294.4900   10823.0930
295.0100   10823.0334
295.5200   10823.3178
296.0300   10823.2723
296.5400   10823.5843
297.0500   10823.5507
297.5600   10823.8448
298.0700   10823.7983
298.5800   10824.0410
299.0900   10823.8756
299.6000   10824.0539
300.1100   10823.9130
300.6200   10824.1283
301.1300   10824.0523
301.6400   10824.3112
302.1500   10824.2535
302.6600   10824.5106
303.1700   10824.3885
303.6800   10824.5716
304.1900   10824.4503
304.7000   10824.6703
305.2100   10824.5904
