#----------------------------------
# BOTDR
# DSTS: v.07.1
# Fri Oct 22 14:22:14 2021
#
# Channel No  = 0
# Partial   = 0
# Partial Start  = 0.00
# Partial End  = 3112.57
# Fibre Length    [m]   = 3112.57  0.00
# Fiber Delay    [m]   = 112.57
# Connection Point    [m]   = 192.66
# Rpt.period      [us]  = 65
# Pulse width     [ns]  = 30
# Frequency Start [MHz] = 10690.00
# Frequency End:  [MHz] = 10990.00
# Frequency Step: [MHz] = 5.00
# No.Averages:    [-]   = 12000
# Sampling Rate   [-]   = 0 (200.00MSs, spatial step = 0.50m)
# Input Range     [-]   = 2 (1V)
# Pulse Delay     [m]   = 100
# Post Pulse Data [m]   = 0
# Fiber Type      [-]   = CH4 Land
# Fiber  temperature [C] = 27.00
# Fiber  Bril Frequency  [MHz] = 10840.00
# Fiber  Strain Coefficient  [ue/MHz] = 18.9150
# Fiber Temperature Coefficient [C/MHz] = 0.9765
# Fiber Refractive Index = 1.4682
# Fiber Sigma = 0.2000
#
#----------------------------------
6104

-112.5700   10840.0000
-112.0700   10840.0000
-111.5700   10840.0000
-111.0700   10840.0000
-110.5700   10840.0000
-110.0700   10840.0000
-109.5700   10840.0000
-109.0700   10840.0000
-108.5700   10840.0000
-108.0700   10840.0000
-107.5700   10840.0000
-107.0700   10840.0000
-106.5700   10840.0000
-106.0700   10840.0000
-105.5700   10840.0000
-105.0700   10840.0000
-104.5700   10840.0000
-104.0700   10840.0000
-103.5700   10840.0000
-103.0700   10840.0000
-102.5700   10840.0000
-102.0700   10840.0000
-101.5700   10840.0000
-101.0700   10840.0000
-100.5700   10840.0000
-100.0700   10840.0000
-99.5700   10840.0000
-99.0700   10840.0000
-98.5700   10840.0000
-98.0700   10840.0000
-97.5700   10840.0000
-97.0700   10840.0000
-96.5700   10840.0000
-96.0700   10840.0000
-95.5700   10840.0000
-95.0700   10840.0000
-94.5700   10840.0000
-94.0700   10840.0000
-93.5700   10840.0000
-93.0700   10840.0000
-92.5700   10840.0000
-92.0700   10840.0000
-91.5700   10840.0000
-91.0700   10840.0000
-90.5700   10840.0000
-90.0700   10840.0000
-89.5700   10840.0000
-89.0700   10840.0000
-88.5700   10840.0000
-88.0700   10840.0000
-87.5700   10840.0000
-87.0700   10840.0000
-86.5700   10840.0000
-86.0700   10840.0000
-85.5700   10840.0000
-85.0700   10840.0000
-84.5700   10840.0000
-84.0700   10840.0000
-83.5700   10840.0000
-83.0700   10840.0000
-82.5700   10840.0000
-82.0700   10840.0000
-81.5700   10840.0000
-81.0700   10840.0000
-80.5700   10840.0000
-80.0700   10840.0000
-79.5700   10840.0000
-79.0700   10840.0000
-78.5700   10840.0000
-78.0700   10840.0000
-77.5700   10840.0000
-77.0700   10840.0000
-76.5700   10840.0000
-76.0700   10840.0000
-75.5700   10840.0000
-75.0700   10840.0000
-74.5700   10840.0000
-74.0700   10840.0000
-73.5700   10840.0000
-73.0700   10840.0000
-72.5700   10840.0000
-72.0700   10840.0000
-71.5700   10840.0000
-71.0700   10840.0000
-70.5700   10840.0000
-70.0700   10840.0000
-69.5700   10840.0000
-69.0700   10840.0000
-68.5700   10840.0000
-68.0700   10840.0000
-67.5700   10840.0000
-67.0700   10840.0000
-66.5700   10840.0000
-66.0700   10840.0000
-65.5700   10840.0000
-65.0700   10840.0000
-64.5700   10840.0000
-64.0700   10840.0000
-63.5700   10840.0000
-63.0700   10840.0000
-62.5700   10840.0000
-62.0700   10840.0000
-61.5700   10840.0000
-61.0700   10840.0000
-60.5700   10840.0000
-60.0700   10840.0000
-59.5700   10840.0000
-59.0700   10840.0000
-58.5700   10840.0000
-58.0700   10840.0000
-57.5700   10840.0000
-57.0700   10840.0000
-56.5700   10840.0000
-56.0700   10840.0000
-55.5700   10840.0000
-55.0700   10840.0000
-54.5700   10840.0000
-54.0700   10840.0000
-53.5700   10840.0000
-53.0700   10840.0000
-52.5700   10840.0000
-52.0700   10840.0000
-51.5700   10840.0000
-51.0700   10840.0000
-50.5700   10840.0000
-50.0700   10840.0000
-49.5700   10840.0000
-49.0700   10840.0000
-48.5700   10840.0000
-48.0700   10840.0000
-47.5700   10840.0000
-47.0700   10840.0000
-46.5700   10840.0000
-46.0700   10840.0000
-45.5700   10840.0000
-45.0700   10840.0000
-44.5700   10840.0000
-44.0700   10840.0000
-43.5700   10840.0000
-43.0700   10840.0000
-42.5700   10840.0000
-42.0700   10840.0000
-41.5700   10840.0000
-41.0700   10840.0000
-40.5700   10840.0000
-40.0700   10840.0000
-39.5700   10840.0000
-39.0700   10840.0000
-38.5700   10840.0000
-38.0700   10840.0000
-37.5700   10840.0000
-37.0700   10840.0000
-36.5700   10840.0000
-36.0700   10840.0000
-35.5700   10840.0000
-35.0700   10840.0000
-34.5700   10840.0000
-34.0700   10840.0000
-33.5700   10840.0000
-33.0700   10840.0000
-32.5700   10840.0000
-32.0700   10840.0000
-31.5700   10840.0000
-31.0700   10840.0000
-30.5700   10840.0000
-30.0700   10840.0000
-29.5700   10840.0000
-29.0700   10840.0000
-28.5700   10840.0000
-28.0700   10840.0000
-27.5700   10840.0000
-27.0700   10840.0000
-26.5700   10840.0000
-26.0700   10840.0000
-25.5700   10840.0000
-25.0700   10840.0000
-24.5700   10840.0000
-24.0700   10840.0000
-23.5700   10840.0000
-23.0700   10840.0000
-22.5700   10840.0000
-22.0700   10840.0000
-21.5700   10840.0000
-21.0700   10840.0000
-20.5700   10840.0000
-20.0700   10840.0000
-19.5700   10840.0000
-19.0700   10840.0000
-18.5700   10840.0000
-18.0700   10840.0000
-17.5700   10840.0000
-17.0700   10840.0000
-16.5700   10840.0000
-16.0700   10840.0000
-15.5700   10840.0000
-15.0700   10840.0000
-14.5700   10840.0000
-14.0700   10840.0000
-13.5700   10840.0000
-13.0700   10840.0000
-12.5700   10840.0000
-12.0700   10840.0000
-11.5700   10840.0000
-11.0700   10840.0000
-10.5700   10840.0000
-10.0700   10840.0000
-9.5700   10840.0000
-9.0700   10840.0000
-8.5700   10840.0000
-8.0700   10840.0000
-7.5700   10840.0000
-7.0700   10840.0000
-6.5700   10840.0000
-6.0700   10840.0000
-5.5700   10840.0000
-5.0700   10840.0000
-4.5700   10840.0000
-4.0700   10840.0000
-3.5700   10840.0000
-3.0700   10840.0000
-2.5700   10840.0000
-2.0700   10840.0000
-1.5700   10840.0000
-1.0700   10819.4700
-0.5700   10818.3773
-0.0700   10818.1458
0.4400   10816.7628
0.9500   10815.8460
1.4600   10811.4632
1.9700   10810.9845
2.4800   10805.1337
2.9900   10797.9333
3.5000   10792.0807
4.0100   10796.3651
4.5200   10801.7602
5.0300   10810.1840
5.5500   10820.9729
6.0600   10828.3838
6.5700   10830.2712
7.0800   10831.9003
7.5900   10832.2933
8.1000   10832.4195
8.6100   10832.4086
9.1200   10832.8524
9.6300   10833.6581
10.1400   10833.5964
10.6500   10833.6233
11.1600   10834.3528
11.6700   10833.5355
12.1800   10832.9727
12.6900   10833.9464
13.2000   10835.1382
13.7100   10836.5758
14.2200   10837.6254
14.7300   10839.0059
15.2400   10839.5675
15.7500   10838.4909
16.2700   10837.6468
16.7800   10838.8562
17.2900   10837.6952
17.8000   10837.5900
18.3100   10839.1324
18.8200   10839.4439
19.3300   10838.3412
19.8400   10838.3847
20.3500   10839.3923
20.8600   10838.7299
21.3700   10839.1369
21.8800   10839.6127
22.3900   10839.5491
22.9000   10840.3205
23.4100   10840.0341
23.9200   10839.3049
24.4300   10838.9962
24.9400   10838.1159
25.4500   10837.6781
25.9600   10838.4817
26.4700   10837.8950
26.9900   10838.5324
27.5000   10838.6118
28.0100   10837.4927
28.5200   10837.5430
29.0300   10838.1042
29.5400   10838.5195
30.0500   10838.5524
30.5600   10837.5867
31.0700   10838.1222
31.5800   10838.2517
32.0900   10839.1223
32.6000   10838.8454
33.1100   10839.5061
33.6200   10839.2523
34.1300   10838.9760
34.6400   10838.9688
35.1500   10838.9432
35.6600   10839.3649
36.1700   10840.1695
36.6800   10840.5488
37.1900   10840.3669
37.7100   10839.2302
38.2200   10839.5834
38.7300   10840.5907
39.2400   10840.9317
39.7500   10840.6398
40.2600   10840.2051
40.7700   10840.3618
41.2800   10841.0030
41.7900   10840.7373
42.3000   10840.8723
42.8100   10840.7041
43.3200   10840.4101
43.8300   10840.2392
44.3400   10839.3052
44.8500   10839.7438
45.3600   10840.6623
45.8700   10841.1072
46.3800   10840.5540
46.8900   10839.5226
47.4000   10839.5905
47.9100   10839.2135
48.4300   10840.0987
48.9400   10840.7014
49.4500   10840.3728
49.9600   10839.8387
50.4700   10841.4900
50.9800   10841.3576
51.4900   10840.8028
52.0000   10841.2054
52.5100   10840.6814
53.0200   10840.0147
53.5300   10839.2305
54.0400   10838.8745
54.5500   10841.1943
55.0600   10841.8127
55.5700   10841.3299
56.0800   10841.0002
56.5900   10840.4559
57.1000   10841.0309
57.6100   10841.0509
58.1200   10840.1890
58.6300   10840.4575
59.1500   10840.2436
59.6600   10840.1303
60.1700   10840.4025
60.6800   10839.1765
61.1900   10838.4691
61.7000   10838.6813
62.2100   10839.2466
62.7200   10839.4343
63.2300   10840.0064
63.7400   10839.7292
64.2500   10840.5157
64.7600   10840.6105
65.2700   10839.9792
65.7800   10840.5884
66.2900   10840.7550
66.8000   10841.1523
67.3100   10841.7543
67.8200   10840.1529
68.3300   10841.0503
68.8400   10840.7228
69.3500   10841.2796
69.8700   10840.0051
70.3800   10841.2968
70.8900   10841.5073
71.4000   10841.1908
71.9100   10840.6375
72.4200   10840.7898
72.9300   10841.5807
73.4400   10840.5772
73.9500   10840.0443
74.4600   10839.8811
74.9700   10839.4577
75.4800   10840.1410
75.9900   10840.2717
76.5000   10840.4132
77.0100   10841.3068
77.5200   10841.8956
78.0300   10840.6897
78.5400   10840.4129
79.0500   10840.2142
79.5600   10839.7187
80.0700   10839.9144
80.5900   10840.1576
81.1000   10839.0562
81.6100   10838.4108
82.1200   10839.2973
82.6300   10839.4233
83.1400   10838.2539
83.6500   10837.8748
84.1600   10837.8483
84.6700   10838.5807
85.1800   10835.9366
85.6900   10830.4771
86.2000   10818.7649
86.7100   10803.0442
87.2200   10773.6762
87.7300   10762.8907
88.2400   10752.7924
88.7500   10750.7591
89.2600   10745.3608
89.7700   10730.0000
90.2800   10725.0000
90.7900   10740.0000
91.3100   10695.0000
91.8200   10755.0000
92.3300   10750.0000
92.8400   10796.5793
93.3500   10810.2327
93.8600   10814.8616
94.3700   10815.7194
94.8800   10817.7059
95.3900   10819.0745
95.9000   10821.1185
96.4100   10819.6993
96.9200   10818.8907
97.4300   10819.1843
97.9400   10820.8524
98.4500   10819.7240
98.9600   10819.2242
99.4700   10817.5860
99.9800   10819.1309
100.4900   10820.8873
101.0000   10820.3932
101.5100   10820.5539
102.0300   10821.2636
102.5400   10820.1024
103.0500   10822.4349
103.5600   10821.8065
104.0700   10821.5212
104.5800   10821.0901
105.0900   10822.3488
105.6000   10821.4667
106.1100   10820.4660
106.6200   10819.8445
107.1300   10820.4272
107.6400   10819.8844
108.1500   10821.3709
108.6600   10820.4135
109.1700   10820.7014
109.6800   10819.6377
110.1900   10820.9097
110.7000   10820.9501
111.2100   10820.4322
111.7200   10820.1522
112.2300   10820.7290
112.7500   10822.0141
113.2600   10822.4052
113.7700   10820.4468
114.2800   10820.5861
114.7900   10821.2467
115.3000   10823.5950
115.8100   10822.5472
116.3200   10822.0754
116.8300   10819.9364
117.3400   10820.8075
117.8500   10821.5591
118.3600   10821.8425
118.8700   10821.5714
119.3800   10821.9262
119.8900   10822.0365
120.4000   10822.3728
120.9100   10821.8090
121.4200   10822.1622
121.9300   10822.6764
122.4400   10821.8799
122.9500   10820.8915
123.4700   10822.4247
123.9800   10822.7057
124.4900   10822.8429
125.0000   10821.8773
125.5100   10820.5876
126.0200   10820.8003
126.5300   10821.5530
127.0400   10820.8207
127.5500   10821.4533
128.0600   10822.4170
128.5700   10823.0430
129.0800   10822.6527
129.5900   10821.7924
130.1000   10821.3134
130.6100   10823.0197
131.1200   10821.9534
131.6300   10822.9463
132.1400   10823.3183
132.6500   10823.9511
133.1600   10824.4663
133.6700   10825.4481
134.1900   10824.6895
134.7000   10825.4404
135.2100   10824.7390
135.7200   10824.0433
136.2300   10824.7598
136.7400   10825.5551
137.2500   10823.6636
137.7600   10823.2447
138.2700   10824.5493
138.7800   10825.3993
139.2900   10824.0199
139.8000   10825.0764
140.3100   10824.1877
140.8200   10823.6000
141.3300   10824.0989
141.8400   10824.8204
142.3500   10824.3819
142.8600   10824.7100
143.3700   10824.0733
143.8800   10825.0116
144.3900   10824.8875
144.9100   10825.5561
145.4200   10825.8727
145.9300   10826.2284
146.4400   10826.4283
146.9500   10827.2793
147.4600   10825.5491
147.9700   10826.7561
148.4800   10826.4012
148.9900   10826.7581
149.5000   10826.5722
150.0100   10826.0959
150.5200   10824.7426
151.0300   10824.6309
151.5400   10823.1810
152.0500   10824.0737
152.5600   10824.4278
153.0700   10823.9450
153.5800   10824.4071
154.0900   10825.4170
154.6000   10825.5314
155.1100   10823.1743
155.6300   10823.7765
156.1400   10824.8631
156.6500   10825.0999
157.1600   10824.3239
157.6700   10823.1311
158.1800   10823.9087
158.6900   10824.7030
159.2000   10824.4600
159.7100   10822.6185
160.2200   10824.0953
160.7300   10822.9025
161.2400   10823.6238
161.7500   10821.9854
162.2600   10823.2873
162.7700   10825.4574
163.2800   10823.9346
163.7900   10822.1090
164.3000   10822.1358
164.8100   10822.5155
165.3200   10823.1494
165.8300   10823.1384
166.3500   10824.2830
166.8600   10824.0014
167.3700   10824.3797
167.8800   10824.3640
168.3900   10822.9072
168.9000   10822.3304
169.4100   10823.5718
169.9200   10822.9384
170.4300   10822.6522
170.9400   10822.2333
171.4500   10822.9990
171.9600   10823.6223
172.4700   10824.4849
172.9800   10824.9702
173.4900   10824.9792
174.0000   10824.2163
174.5100   10825.3143
175.0200   10824.1365
175.5300   10825.2266
176.0400   10824.7316
176.5500   10824.7589
177.0700   10824.2628
177.5800   10823.3777
178.0900   10823.5062
178.6000   10824.8827
179.1100   10824.2844
179.6200   10823.6289
180.1300   10823.6360
180.6400   10824.3688
181.1500   10823.6681
181.6600   10824.0797
182.1700   10826.1032
182.6800   10824.9420
183.1900   10823.6238
183.7000   10825.0315
184.2100   10824.9736
184.7200   10826.2213
185.2300   10825.5553
185.7400   10825.5567
186.2500   10824.9549
186.7600   10824.4860
187.2700   10824.2261
187.7900   10824.4408
188.3000   10823.5341
188.8100   10824.9280
189.3200   10823.2586
189.8300   10823.7732
190.3400   10823.8721
190.8500   10824.5481
191.3600   10825.6554
191.8700   10826.2059
192.3800   10825.9528
192.8900   10824.9792
193.4000   10824.0616
193.9100   10824.3360
194.4200   10824.7555
194.9300   10824.9823
195.4400   10824.1120
195.9500   10824.7193
196.4600   10824.4544
196.9700   10825.4622
197.4800   10826.0282
197.9900   10826.4070
198.5100   10824.0612
199.0200   10824.1086
199.5300   10824.5575
200.0400   10825.5863
200.5500   10825.6388
201.0600   10825.1959
201.5700   10823.8935
202.0800   10824.7280
202.5900   10823.8401
203.1000   10824.5108
203.6100   10825.1729
204.1200   10825.1601
204.6300   10825.0490
205.1400   10825.8045
205.6500   10825.0453
206.1600   10825.4356
206.6700   10825.6498
207.1800   10825.2978
207.6900   10825.8361
208.2000   10826.1780
208.7100   10826.5022
209.2300   10827.5481
209.7400   10825.3715
210.2500   10825.4369
210.7600   10825.8980
211.2700   10825.4485
211.7800   10824.5883
212.2900   10825.7973
212.8000   10827.2439
213.3100   10826.9808
213.8200   10825.2674
214.3300   10825.2091
214.8400   10826.4064
215.3500   10826.9415
215.8600   10825.1515
216.3700   10823.4078
216.8800   10823.7769
217.3900   10824.6252
217.9000   10823.3620
218.4100   10825.0316
218.9200   10824.7570
219.4300   10825.6120
219.9500   10824.8424
220.4600   10825.6565
220.9700   10825.5557
221.4800   10825.8769
221.9900   10824.9540
222.5000   10825.6152
223.0100   10823.2272
223.5200   10822.8894
224.0300   10823.7788
224.5400   10824.7984
225.0500   10823.7851
225.5600   10824.9087
226.0700   10824.4134
226.5800   10825.0054
227.0900   10823.9700
227.6000   10824.6761
228.1100   10824.7635
228.6200   10825.0853
229.1300   10823.9123
229.6400   10823.8703
230.1500   10824.1537
230.6700   10825.5383
231.1800   10826.5868
231.6900   10826.8307
232.2000   10825.8747
232.7100   10826.2871
233.2200   10825.1657
233.7300   10824.4097
234.2400   10824.1732
234.7500   10825.7574
235.2600   10825.6720
235.7700   10824.9423
236.2800   10822.5555
236.7900   10822.4630
237.3000   10822.7051
237.8100   10823.8406
238.3200   10824.3183
238.8300   10824.6153
239.3400   10824.8851
239.8500   10824.4337
240.3600   10823.1533
240.8700   10824.2141
241.3900   10823.8404
241.9000   10824.3747
242.4100   10822.1451
242.9200   10824.9982
243.4300   10825.7086
243.9400   10825.4232
244.4500   10824.3388
244.9600   10823.6975
245.4700   10823.3663
245.9800   10823.5097
246.4900   10824.5578
247.0000   10824.8899
247.5100   10823.4567
248.0200   10824.9369
248.5300   10825.1767
249.0400   10823.6248
249.5500   10823.9033
250.0600   10824.8798
250.5700   10822.9187
251.0800   10822.8577
251.5900   10822.9825
252.1100   10822.1087
252.6200   10824.0177
253.1300   10826.1834
253.6400   10824.9488
254.1500   10825.5920
254.6600   10824.0876
255.1700   10826.4678
255.6800   10825.6082
256.1900   10824.2124
256.7000   10823.7950
257.2100   10824.9786
257.7200   10826.1501
258.2300   10825.8705
258.7400   10824.6456
259.2500   10823.7911
259.7600   10822.4217
260.2700   10824.1432
260.7800   10822.9155
261.2900   10824.9335
261.8000   10825.8081
262.3100   10825.2112
262.8300   10823.7822
263.3400   10824.4225
263.8500   10825.5954
264.3600   10826.0558
264.8700   10826.3834
265.3800   10825.4858
265.8900   10824.7029
266.4000   10825.4003
266.9100   10825.4152
267.4200   10825.3439
267.9300   10824.0071
268.4400   10825.0085
268.9500   10825.1596
269.4600   10825.8551
269.9700   10826.5168
270.4800   10825.8324
270.9900   10824.8984
271.5000   10826.8526
272.0100   10825.6660
272.5200   10825.1310
273.0300   10825.0919
273.5500   10826.2024
274.0600   10825.5340
274.5700   10825.8250
275.0800   10824.9199
275.5900   10823.7019
276.1000   10823.7897
276.6100   10824.5982
277.1200   10824.1619
277.6300   10825.5575
278.1400   10826.1404
278.6500   10825.7445
279.1600   10824.8729
279.6700   10825.1622
280.1800   10824.5749
280.6900   10825.8715
281.2000   10826.9130
281.7100   10826.2497
282.2200   10825.0715
282.7300   10826.1163
283.2400   10825.7007
283.7500   10826.5549
284.2700   10826.5889
284.7800   10824.8254
285.2900   10825.0966
285.8000   10825.6177
286.3100   10825.7363
286.8200   10826.4215
287.3300   10826.0962
287.8400   10826.3417
288.3500   10825.3596
288.8600   10825.6327
289.3700   10823.8400
289.8800   10825.7367
290.3900   10825.5778
290.9000   10826.0417
291.4100   10825.8590
291.9200   10826.6378
292.4300   10824.6816
292.9400   10825.8634
293.4500   10825.9381
293.9600   10825.9138
294.4700   10825.9960
294.9900   10827.0239
295.5000   10825.6445
296.0100   10824.9230
296.5200   10825.9362
297.0300   10827.0853
297.5400   10825.5698
298.0500   10827.0431
298.5600   10827.9551
299.0700   10828.1599
299.5800   10827.2034
300.0900   10827.1118
300.6000   10827.0405
301.1100   10825.8941
301.6200   10824.6742
302.1300   10825.2945
302.6400   10825.2282
303.1500   10825.5619
303.6600   10824.2520
304.1700   10825.2701
304.6800   10826.0042
305.1900   10826.4161
305.7100   10825.8189
306.2200   10825.1796
306.7300   10825.3285
307.2400   10825.8465
307.7500   10826.3035
308.2600   10825.3963
308.7700   10824.5395
309.2800   10825.3813
309.7900   10825.5718
310.3000   10825.5070
310.8100   10824.7616
311.3200   10826.0733
