#----------------------------------
# BOTDR
# DSTS: v.07.1
# Fri Oct 22 13:42:42 2021
#
# Channel No  = 1
# Partial   = 0
# Partial Start  = 0.00
# Partial End  = 5118.55
# Fibre Length    [m]   = 5118.55  0.00
# Fiber Delay    [m]   = 118.55
# Connection Point    [m]   = 198.64
# Rpt.period      [us]  = 65
# Pulse width     [ns]  = 40
# Frequency Start [MHz] = 10690.00
# Frequency End:  [MHz] = 10990.00
# Frequency Step: [MHz] = 5.00
# No.Averages:    [-]   = 12000
# Sampling Rate   [-]   = 2 (50.00MSs, spatial step = 2.00m)
# Input Range     [-]   = 2 (1V)
# Pulse Delay     [m]   = 100
# Post Pulse Data [m]   = 0
# Fiber Type      [-]   = CH4 Land
# Fiber  temperature [C] = 27.00
# Fiber  Bril Frequency  [MHz] = 10840.00
# Fiber  Strain Coefficient  [ue/MHz] = 18.9150
# Fiber Temperature Coefficient [C/MHz] = 0.9765
# Fiber Refractive Index = 1.4682
# Fiber Sigma = 0.2000
#
#----------------------------------
2509

-118.5500   0.0000
-116.5500   0.0000
-114.5500   0.0000
-112.5500   0.0000
-110.5500   0.0000
-108.5500   0.0000
-106.5500   0.0000
-104.5500   0.0000
-102.5500   0.0000
-100.5500   0.0000
-98.5500   0.0000
-96.5500   0.0000
-94.5500   0.0000
-92.5500   0.0000
-90.5500   0.0000
-88.5500   0.0000
-86.5500   0.0000
-84.5500   0.0000
-82.5500   0.0000
-80.5500   0.0000
-78.5500   0.0000
-76.5500   0.0000
-74.5500   0.0000
-72.5500   0.0000
-70.5500   0.0000
-68.5500   0.0000
-66.5500   0.0000
-64.5500   0.0000
-62.5500   0.0000
-60.5500   0.0000
-58.5500   0.0000
-56.5500   0.0000
-54.5500   0.0000
-52.5500   0.0000
-50.5500   0.0000
-48.5500   0.0000
-46.5500   0.0000
-44.5500   0.0000
-42.5500   0.0000
-40.5500   0.0000
-38.5500   0.0000
-36.5500   0.0000
-34.5500   0.0000
-32.5500   0.0000
-30.5500   0.0000
-28.5500   0.0000
-26.5500   0.0000
-24.5500   0.0000
-22.5500   0.0000
-20.5500   0.0000
-18.5500   0.0000
-16.5500   0.0000
-14.5500   0.0000
-12.5500   0.0000
-10.5500   0.0000
-8.5500   0.0000
-6.5500   0.0000
-4.5500   0.0000
-2.5500   -151.6377
-0.5500   -167.7738
1.4900   -22.8675
3.5300   812.8417
5.5800   1299.0299
7.6200   344.3421
9.6600   156.8007
11.7000   166.0273
13.7400   203.9691
15.7900   209.2423
17.8300   199.9796
19.8700   204.4822
21.9100   197.4408
23.9500   192.6967
25.9900   191.3626
28.0400   189.8931
30.0800   191.3260
32.1200   200.3097
34.1600   201.8076
36.2000   217.1887
38.2500   234.7031
40.2900   232.4958
42.3300   214.6688
44.3700   202.3773
46.4100   191.7548
48.4600   180.2561
50.5000   176.9064
52.5400   173.1564
54.5800   170.3830
56.6200   166.4253
58.6700   145.9223
60.7100   94.3411
62.7500   73.6111
64.7900   81.1926
66.8300   96.1869
68.8700   113.0336
70.9200   129.7173
72.9600   134.2868
75.0000   138.6732
77.0400   150.4540
79.0800   147.6962
81.1300   134.1673
83.1700   109.3472
85.2100   -429.8597
87.2500   -1393.0355
89.2900   -1655.5075
91.3400   -1487.9331
93.3800   -333.7177
95.4200   -315.9213
97.4600   -313.2181
99.5000   -307.5747
101.5500   -290.6962
103.5900   -272.1955
105.6300   -267.9557
107.6700   -272.5990
109.7100   -278.5984
111.7500   -281.7109
113.8000   -278.1087
115.8400   -275.4055
117.8800   -259.0354
119.9200   -229.9201
121.9600   -224.6155
124.0100   -222.0362
126.0500   -221.1563
128.0900   -218.9404
130.1300   -207.5650
132.1700   -192.8725
134.2200   -198.7970
136.2600   -192.0396
138.3000   -188.4629
140.3400   -190.3618
142.3800   -186.8604
144.4300   -150.6974
146.4700   -122.8090
148.5100   -118.8746
150.5500   -114.8800
152.5900   -98.0080
154.6300   -98.8567
156.6800   -133.6910
158.7200   -152.9479
160.7600   -134.6371
162.8000   -112.2420
164.8400   -137.3455
166.8900   -182.1925
168.9300   -177.6931
170.9700   -114.2196
173.0100   -25.1219
175.0500   37.6012
177.1000   54.6836
179.1400   7.0091
181.1800   -47.8429
183.2200   -49.1572
185.2600   -15.6687
187.3100   -10.9184
189.3500   -44.0162
191.3900   -32.3182
193.4300   6.1616
195.4700   -14.7755
197.5100   -62.4807
199.5600   -78.5319
201.6000   -58.2944
203.6400   -24.1914
205.6800   -50.5572
207.7200   -100.5292
209.7700   -113.1695
211.8100   -115.4630
213.8500   -112.0859
215.8900   -124.9200
217.9300   -131.1919
219.9800   -132.9323
222.0200   -150.2036
224.0600   -162.9375
226.1000   -143.8602
228.1400   -131.4732
230.1900   -124.7084
232.2300   -125.2416
234.2700   -134.7044
236.3100   -135.5613
238.3500   -116.3624
240.3900   -103.0050
242.4400   -104.3267
244.4800   -148.9622
246.5200   -195.4469
248.5600   -198.5088
250.6000   -164.3870
252.6500   -99.5851
254.6900   -86.1611
256.7300   -133.8087
258.7700   -158.8000
260.8100   -163.9220
262.8600   -154.6818
264.9000   -124.9852
266.9400   -113.4913
268.9800   -111.3640
271.0200   -108.5281
273.0700   -92.1258
275.1100   -49.5244
277.1500   -7.9248
279.1900   15.4694
281.2300   11.5144
283.2700   15.9439
285.3200   16.3495
287.3600   2.5029
289.4000   -10.9656
291.4400   -9.7383
293.4800   -13.1866
295.5300   -13.7176
297.5700   -15.5179
299.6100   -13.1204
301.6500   -2.1456
303.6900   3.7460
305.7400   -5.7259
307.7800   10.8272
309.8200   13.8563
311.8600   -19.7286
313.9000   -41.5331
315.9500   -21.4991
317.9900   0.3811
320.0300   13.1091
322.0700   21.7066
324.1100   37.8663
326.1500   32.3840
328.2000   18.6215
330.2400   8.7519
332.2800   12.2862
334.3200   22.9097
336.3600   14.2560
338.4100   20.1857
340.4500   40.7448
342.4900   49.3937
344.5300   47.3246
346.5700   57.8455
348.6200   59.2632
350.6600   39.6960
352.7000   20.2305
354.7400   27.7075
356.7800   34.3593
358.8300   39.0001
360.8700   45.1480
362.9100   19.8098
364.9500   -3.1611
366.9900   -11.2055
369.0300   -38.8280
371.0800   -76.0839
373.1200   -91.5559
375.1600   -79.7792
377.2000   -63.9439
379.2400   -74.2272
381.2900   -87.2747
383.3300   -94.7232
385.3700   -101.0001
387.4100   -96.2657
389.4500   -78.2768
391.5000   -64.7795
393.5400   -65.4200
395.5800   -58.6890
397.6200   -57.3081
399.6600   -64.7207
401.7100   -64.0062
403.7500   -56.1222
405.7900   -51.5959
407.8300   -42.1369
409.8700   -22.5937
411.9100   -28.3030
413.9600   -41.5194
416.0000   -52.2803
418.0400   -59.7653
420.0800   -64.4439
422.1200   -53.4298
424.1700   -47.7396
426.2100   -49.2778
428.2500   -54.3679
430.2900   -55.8080
432.3300   -51.2666
434.3800   -53.0241
436.4200   -70.1672
438.4600   -64.2828
440.5000   -22.3635
442.5400   33.2747
444.5900   76.4212
446.6300   88.6309
448.6700   111.0203
450.7100   129.9496
452.7500   127.3887
454.7900   121.5614
456.8400   111.5118
458.8800   98.8442
460.9200   72.1801
462.9600   59.9626
465.0000   77.8690
467.0500   66.8796
469.0900   21.5585
471.1300   -53.1125
473.1700   -94.3869
475.2100   -81.9036
477.2600   -87.2337
479.3000   -118.3150
481.3400   -142.6042
483.3800   -129.8961
485.4200   -112.6288
487.4700   -104.1718
489.5100   -97.2654
491.5500   -116.5139
493.5900   -162.1231
495.6300   -202.3711
497.6700   -218.6821
499.7200   -231.6852
501.7600   -259.6304
503.8000   -286.6319
505.8400   -273.8200
507.8800   -248.1960
509.9300   -245.2434
511.9700   -251.2305
514.0100   -249.6871
516.0500   -248.6234
518.0900   -250.8971
520.1400   -259.7000
522.1800   -265.7720
524.2200   -258.4004
526.2600   -246.1685
528.3000   -263.5411
530.3500   -321.9550
532.3900   -350.6063
534.4300   -367.4398
536.4700   -390.0174
538.5100   -402.5270
540.5500   -379.4207
542.6000   -383.9065
544.6400   -393.1353
546.6800   -401.6623
548.7200   -397.9951
550.7600   -396.6657
552.8100   -366.9513
554.8500   -270.1838
556.8900   -169.0737
558.9300   -123.9285
560.9700   -122.5987
563.0200   -162.0950
565.0600   -191.9126
567.1000   -200.8288
569.1400   -191.8856
571.1800   -187.8562
573.2300   -196.0993
575.2700   -194.4923
577.3100   -176.4347
579.3500   -143.1331
581.3900   -106.7083
583.4300   -77.8314
585.4800   -88.7221
587.5200   -101.5644
589.5600   -65.3852
591.6000   -17.6414
593.6400   -29.4172
595.6900   -39.7840
597.7300   -11.0579
599.7700   11.3351
601.8100   -24.1922
603.8500   -69.9998
605.9000   -92.9474
607.9400   -91.7591
609.9800   -93.0068
612.0200   -76.7632
614.0600   -46.7050
616.1100   -74.3844
618.1500   -117.7361
620.1900   -158.9195
622.2300   -207.0431
624.2700   -218.7458
626.3100   -192.4685
628.3600   -177.3991
630.4000   -161.0383
632.4400   -134.6155
634.4800   -109.6202
636.5200   -103.6982
638.5700   -111.2272
640.6100   -112.3652
642.6500   -122.1600
644.6900   -121.9262
646.7300   -124.0392
648.7800   -141.7730
650.8200   -162.3839
652.8600   -177.6021
654.9000   -185.7581
656.9400   -181.8017
658.9900   -169.4568
661.0300   -144.9791
663.0700   -119.9198
665.1100   -105.7203
667.1500   -103.5897
669.1900   -93.5070
671.2400   -90.7628
673.2800   -83.5239
675.3200   -75.4661
677.3600   -51.3318
679.4000   -42.2446
681.4500   -49.1121
683.4900   -48.3097
685.5300   -35.8008
687.5700   -37.4356
689.6100   -8.3765
691.6600   30.9952
693.7000   19.6712
695.7400   -10.8667
697.7800   -30.2264
699.8200   -19.9008
701.8700   39.4286
703.9100   88.9035
705.9500   117.3711
707.9900   142.9909
710.0300   159.9689
712.0700   164.4417
714.1200   181.1000
716.1600   182.8724
718.2000   166.6792
720.2400   143.5883
722.2800   134.8923
724.3300   135.7098
726.3700   126.0635
728.4100   100.4210
730.4500   95.4518
732.4900   114.2483
734.5400   140.2528
736.5800   148.2403
738.6200   135.9920
740.6600   129.2333
742.7000   135.7244
744.7500   146.4448
746.7900   143.1577
748.8300   115.8828
750.8700   99.8610
752.9100   96.6197
754.9500   91.5461
757.0000   110.1366
759.0400   111.4646
761.0800   83.2773
763.1200   90.3828
765.1600   109.5231
767.2100   125.2063
769.2500   133.3539
771.2900   123.8652
773.3300   112.5420
775.3700   95.2428
777.4200   63.8535
779.4600   50.3135
781.5000   58.3191
783.5400   62.4286
785.5800   60.1013
787.6300   57.7333
789.6700   49.7789
791.7100   49.3561
793.7500   59.2011
795.7900   67.2871
797.8300   61.5540
799.8800   42.9881
801.9200   64.0090
803.9600   81.4527
806.0000   59.5203
808.0400   47.5560
810.0900   58.6159
812.1300   48.8888
814.1700   30.0579
816.2100   32.9844
818.2500   54.0110
820.3000   55.7970
822.3400   32.4749
824.3800   20.6489
826.4200   20.7061
828.4600   16.3153
830.5100   13.1590
832.5500   21.0127
834.5900   32.9150
836.6300   35.5555
838.6700   27.1776
840.7100   12.0105
842.7600   4.4088
844.8000   15.9911
846.8400   7.9570
848.8800   8.0216
850.9200   16.4388
852.9700   11.7264
855.0100   15.6448
857.0500   23.0081
859.0900   -3.6579
861.1300   -10.5746
863.1800   -16.6352
865.2200   -35.4089
867.2600   -17.7758
869.3000   13.5912
871.3400   25.1364
873.3900   46.7401
875.4300   35.5013
877.4700   30.2012
879.5100   51.3211
881.5500   48.3682
883.5900   -16.6295
885.6400   -76.5070
887.6800   -99.4808
889.7200   -102.8122
891.7600   -76.1492
893.8000   -40.9634
895.8500   -4.2169
897.8900   32.9134
899.9300   50.6874
901.9700   37.4825
904.0100   20.0214
906.0600   44.2756
908.1000   64.1853
910.1400   32.4960
912.1800   -32.7232
914.2200   -96.3417
916.2700   -128.9998
918.3100   -134.6670
920.3500   -130.3211
922.3900   -121.5601
924.4300   -112.4013
926.4700   -73.5225
928.5200   -21.9268
930.5600   -45.7370
932.6000   -100.4541
934.6400   -110.5046
936.6800   -123.0213
938.7300   -143.7644
940.7700   -165.3888
942.8100   -151.7662
944.8500   -119.5563
946.8900   -101.3021
948.9400   -90.3702
950.9800   -52.3025
953.0200   -17.9635
955.0600   -50.6512
957.1000   -100.6500
959.1500   -130.0471
961.1900   -138.6135
963.2300   -166.9061
965.2700   -171.2888
967.3100   -92.3139
969.3500   39.6662
971.4000   128.9555
973.4400   147.1844
975.4800   141.9118
977.5200   92.5478
979.5600   -1.1489
981.6100   -53.7227
983.6500   -82.8277
985.6900   -112.9308
987.7300   -133.0389
989.7700   -127.7952
991.8200   -89.2774
993.8600   -82.9029
995.9000   -105.6748
997.9400   -128.3847
999.9800   -111.1462
1002.0300   -90.6075
1004.0700   -136.1446
1006.1100   -171.1712
1008.1500   -190.5469
1010.1900   -215.5536
1012.2300   -234.2456
1014.2800   -223.8527
1016.3200   -202.7679
1018.3600   -170.3736
1020.4000   -141.5900
1022.4400   -114.8316
1024.4900   -56.0471
1026.5300   -39.3491
1028.5700   -102.4900
1030.6100   -142.4623
1032.6500   -153.2658
1034.7000   -147.0910
1036.7400   -139.1963
1038.7800   -105.4348
1040.8200   -82.0385
1042.8600   -93.8590
1044.9100   -108.5911
1046.9500   -111.2506
1048.9900   -71.1763
1051.0300   -34.3027
1053.0700   -69.2332
1055.1100   -100.0632
1057.1600   -157.1084
1059.2000   -228.4393
1061.2400   -251.8084
1063.2800   -234.5992
1065.3200   -208.3924
1067.3700   -195.5015
1069.4100   -176.2772
1071.4500   -112.1605
1073.4900   -24.5554
1075.5300   -7.1064
1077.5800   -52.2008
1079.6200   -92.2399
1081.6600   -119.0760
1083.7000   -131.4103
1085.7400   -114.4648
1087.7900   -68.2411
1089.8300   -33.5146
1091.8700   -22.5240
1093.9100   -15.8301
1095.9500   2.9561
1097.9900   26.7394
1100.0400   8.5874
1102.0800   -22.8285
1104.1200   -55.5140
1106.1600   -99.4502
1108.2000   -151.6590
1110.2500   -170.7807
1112.2900   -143.2081
1114.3300   -136.0020
1116.3700   -146.9978
1118.4100   -135.6234
1120.4600   -82.3642
1122.5000   -34.2084
1124.5400   -41.3778
1126.5800   -75.5673
1128.6200   -131.9845
1130.6700   -187.1341
1132.7100   -206.8581
1134.7500   -196.0882
1136.7900   -148.1798
1138.8300   -96.5175
1140.8700   -54.9994
1142.9200   -32.6389
1144.9600   4.1488
1147.0000   31.5980
1149.0400   -19.2623
1151.0800   -41.7512
1153.1300   -51.5549
1155.1700   -79.0919
1157.2100   -118.6848
1159.2500   -126.1047
1161.2900   -83.6502
1163.3400   -61.9840
1165.3800   -68.0960
1167.4200   -49.3589
1169.4600   -18.2779
1171.5000   -21.6003
1173.5500   -71.4663
1175.5900   -106.7488
1177.6300   -123.5486
1179.6700   -144.9978
1181.7100   -160.5205
1183.7500   -133.9989
1185.8000   -109.2312
1187.8400   -104.4932
1189.8800   -111.9233
1191.9200   -118.7484
1193.9600   -79.4949
1196.0100   -63.1863
1198.0500   -115.1688
1200.0900   -147.8096
1202.1300   -152.7995
1204.1700   -156.5182
1206.2200   -160.4765
1208.2600   -131.2247
1210.3000   -110.9566
1212.3400   -120.0162
1214.3800   -121.3690
1216.4300   -95.6901
1218.4700   -47.4516
1220.5100   -45.1543
1222.5500   -90.9592
1224.5900   -107.9476
1226.6300   -106.6559
1228.6800   -116.6291
1230.7200   -128.2340
1232.7600   -99.4145
1234.8000   -61.4493
1236.8400   -51.5945
1238.8900   -64.2188
1240.9300   -54.1077
1242.9700   -28.5717
1245.0100   -52.2792
1247.0500   -85.9589
1249.1000   -106.1637
1251.1400   -126.8918
1253.1800   -153.0894
1255.2200   -143.5854
1257.2600   -109.1944
1259.3100   -88.0623
1261.3500   -65.9243
1263.3900   -51.5218
1265.4300   -27.3228
1267.4700   -4.2625
1269.5100   -25.6461
1271.5600   -57.7286
1273.6000   -74.7808
1275.6400   -94.3183
1277.6800   -137.4809
1279.7200   -164.8597
1281.7700   -140.9611
1283.8100   -103.0520
1285.8500   -72.3499
1287.8900   -58.7630
1289.9300   -51.8259
1291.9800   -11.0855
1294.0200   -14.8494
1296.0600   -57.7500
1298.1000   -78.1535
1300.1400   -111.1926
1302.1900   -145.6388
1304.2300   -140.6020
1306.2700   -115.5642
1308.3100   -106.4628
1310.3500   -123.3072
1312.3900   -146.3176
1314.4400   -131.7104
1316.4800   -96.4696
1318.5200   -108.9783
1320.5600   -138.8131
1322.6000   -146.7548
1324.6500   -175.8819
1326.6900   -211.2281
1328.7300   -187.8782
1330.7700   -147.0307
1332.8100   -143.2140
1334.8600   -129.5794
1336.9000   -82.3822
1338.9400   -15.7116
1340.9800   35.7810
1343.0200   29.8791
1345.0700   -47.9428
1347.1100   -112.1528
1349.1500   -144.0219
1351.1900   -177.7045
1353.2300   -156.9433
1355.2700   -83.2381
1357.3200   -6.0096
1359.3600   73.6294
1361.4000   103.9443
1363.4400   99.4766
1365.4800   114.5433
1367.5300   145.3706
1369.5700   140.4005
1371.6100   117.2267
1373.6500   88.0346
1375.6900   33.0703
1377.7400   -13.6967
1379.7800   13.2236
1381.8200   49.8298
1383.8600   44.7838
1385.9000   19.0180
1387.9500   20.9710
1389.9900   11.2664
1392.0300   11.6276
1394.0700   25.0980
1396.1100   10.3750
1398.1500   -51.4399
1400.2000   -101.1851
1402.2400   -92.3080
1404.2800   -53.2163
1406.3200   -6.3126
1408.3600   23.1907
1410.4100   12.0141
1412.4500   -16.7178
1414.4900   -54.7746
1416.5300   -47.3885
1418.5700   7.9819
1420.6200   61.1735
1422.6600   42.8952
1424.7000   -70.8599
1426.7400   -160.7128
1428.7800   -134.4003
1430.8300   -103.9424
1432.8700   -85.4717
1434.9100   -63.8126
1436.9500   -75.3097
1438.9900   -82.9401
1441.0300   -105.6719
1443.0800   -139.9674
1445.1200   -154.5549
1447.1600   -163.0656
1449.2000   -155.8290
1451.2400   -170.3863
1453.2900   -181.2799
1455.3300   -176.6617
1457.3700   -162.8314
1459.4100   -112.2253
1461.4500   -98.1307
1463.5000   -124.1386
1465.5400   -142.7303
1467.5800   -149.7401
1469.6200   -144.2039
1471.6600   -112.9242
1473.7100   -82.6985
1475.7500   -35.3689
1477.7900   1.0490
1479.8300   35.8119
1481.8700   35.7006
1483.9100   0.5854
1485.9600   2.9445
1488.0000   19.6867
1490.0400   60.4290
1492.0800   85.8931
1494.1200   81.2884
1496.1700   77.6651
1498.2100   95.7733
1500.2500   84.6676
1502.2900   73.3694
1504.3300   86.9972
1506.3800   100.0047
1508.4200   86.3768
1510.4600   47.0859
1512.5000   5.0406
1514.5400   -9.7637
1516.5900   15.3233
1518.6300   45.1254
1520.6700   92.8691
1522.7100   128.6580
1524.7500   129.0180
1526.7900   142.5858
1528.8400   156.6564
1530.8800   164.0881
1532.9200   105.2012
1534.9600   14.8383
1537.0000   -52.7608
1539.0500   -60.4708
1541.0900   -68.6383
1543.1300   -84.4179
1545.1700   -86.6351
1547.2100   -89.8910
1549.2600   -100.2454
1551.3000   -97.3505
1553.3400   -68.1067
1555.3800   -46.9092
1557.4200   -71.5714
1559.4700   -104.4735
1561.5100   -120.5840
1563.5500   -217.5296
1565.5900   -282.7305
1567.6300   -266.1724
1569.6700   -261.1594
1571.7200   -297.8545
1573.7600   -325.9837
1575.8000   -327.8120
1577.8400   -316.5431
1579.8800   -294.8368
1581.9300   -270.2608
1583.9700   -255.3133
1586.0100   -247.2310
1588.0500   -293.6828
1590.0900   -321.8980
1592.1400   -257.7502
1594.1800   -206.8498
1596.2200   -230.6287
1598.2600   -246.9020
1600.3000   -247.8095
1602.3500   -259.6792
1604.3900   -294.3332
1606.4300   -358.4523
1608.4700   -389.0732
1610.5100   -412.1520
1612.5500   -428.7710
1614.6000   -415.4234
1616.6400   -379.2023
1618.6800   -317.7288
1620.7200   -263.4787
1622.7600   -244.9993
1624.8100   -163.0250
1626.8500   -93.5410
1628.8900   -124.0392
1630.9300   -162.3574
1632.9700   -171.9297
1635.0200   -165.2523
1637.0600   -165.4709
1639.1000   -175.7167
1641.1400   -186.2221
1643.1800   -193.7791
1645.2300   -219.2959
1647.2700   -245.4451
1649.3100   -266.3823
1651.3500   -268.6915
1653.3900   -251.9865
1655.4300   -209.3302
1657.4800   -165.1797
1659.5200   -175.9995
1661.5600   -186.7574
1663.6000   -146.7715
1665.6400   -101.3227
1667.6900   -124.9912
1669.7300   -137.9800
1671.7700   -87.0440
1673.8100   -62.0317
1675.8500   -183.2580
1677.9000   -239.9640
1679.9400   -124.6388
1681.9800   -36.6653
1684.0200   -46.7646
1686.0600   -74.9049
1688.1100   -51.5546
1690.1500   18.7524
1692.1900   79.3919
1694.2300   120.2947
