#----------------------------------
# BOTDR
# DSTS: v.07.1
# Fri Oct 22 14:36:39 2021
#
# Channel No  = 0
# Partial   = 0
# Partial Start  = 0.00
# Partial End  = 4118.55
# Fibre Length    [m]   = 4118.55  0.00
# Fiber Delay    [m]   = 118.55
# Connection Point    [m]   = 198.64
# Rpt.period      [us]  = 65
# Pulse width     [ns]  = 40
# Frequency Start [MHz] = 10690.00
# Frequency End:  [MHz] = 10990.00
# Frequency Step: [MHz] = 5.00
# No.Averages:    [-]   = 12000
# Sampling Rate   [-]   = 0 (200.00MSs, spatial step = 0.50m)
# Input Range     [-]   = 2 (1V)
# Pulse Delay     [m]   = 100
# Post Pulse Data [m]   = 0
# Fiber Type      [-]   = CH4 Land
# Fiber  temperature [C] = 27.00
# Fiber  Bril Frequency  [MHz] = 10840.00
# Fiber  Strain Coefficient  [ue/MHz] = 18.9150
# Fiber Temperature Coefficient [C/MHz] = 0.9765
# Fiber Refractive Index = 1.4682
# Fiber Sigma = 0.2000
#
#----------------------------------
8074

-118.5500   10840.0000
-118.0500   10840.0000
-117.5500   10840.0000
-117.0500   10840.0000
-116.5500   10840.0000
-116.0500   10840.0000
-115.5500   10840.0000
-115.0500   10840.0000
-114.5500   10840.0000
-114.0500   10840.0000
-113.5500   10840.0000
-113.0500   10840.0000
-112.5500   10840.0000
-112.0500   10840.0000
-111.5500   10840.0000
-111.0500   10840.0000
-110.5500   10840.0000
-110.0500   10840.0000
-109.5500   10840.0000
-109.0500   10840.0000
-108.5500   10840.0000
-108.0500   10840.0000
-107.5500   10840.0000
-107.0500   10840.0000
-106.5500   10840.0000
-106.0500   10840.0000
-105.5500   10840.0000
-105.0500   10840.0000
-104.5500   10840.0000
-104.0500   10840.0000
-103.5500   10840.0000
-103.0500   10840.0000
-102.5500   10840.0000
-102.0500   10840.0000
-101.5500   10840.0000
-101.0500   10840.0000
-100.5500   10840.0000
-100.0500   10840.0000
-99.5500   10840.0000
-99.0500   10840.0000
-98.5500   10840.0000
-98.0500   10840.0000
-97.5500   10840.0000
-97.0500   10840.0000
-96.5500   10840.0000
-96.0500   10840.0000
-95.5500   10840.0000
-95.0500   10840.0000
-94.5500   10840.0000
-94.0500   10840.0000
-93.5500   10840.0000
-93.0500   10840.0000
-92.5500   10840.0000
-92.0500   10840.0000
-91.5500   10840.0000
-91.0500   10840.0000
-90.5500   10840.0000
-90.0500   10840.0000
-89.5500   10840.0000
-89.0500   10840.0000
-88.5500   10840.0000
-88.0500   10840.0000
-87.5500   10840.0000
-87.0500   10840.0000
-86.5500   10840.0000
-86.0500   10840.0000
-85.5500   10840.0000
-85.0500   10840.0000
-84.5500   10840.0000
-84.0500   10840.0000
-83.5500   10840.0000
-83.0500   10840.0000
-82.5500   10840.0000
-82.0500   10840.0000
-81.5500   10840.0000
-81.0500   10840.0000
-80.5500   10840.0000
-80.0500   10840.0000
-79.5500   10840.0000
-79.0500   10840.0000
-78.5500   10840.0000
-78.0500   10840.0000
-77.5500   10840.0000
-77.0500   10840.0000
-76.5500   10840.0000
-76.0500   10840.0000
-75.5500   10840.0000
-75.0500   10840.0000
-74.5500   10840.0000
-74.0500   10840.0000
-73.5500   10840.0000
-73.0500   10840.0000
-72.5500   10840.0000
-72.0500   10840.0000
-71.5500   10840.0000
-71.0500   10840.0000
-70.5500   10840.0000
-70.0500   10840.0000
-69.5500   10840.0000
-69.0500   10840.0000
-68.5500   10840.0000
-68.0500   10840.0000
-67.5500   10840.0000
-67.0500   10840.0000
-66.5500   10840.0000
-66.0500   10840.0000
-65.5500   10840.0000
-65.0500   10840.0000
-64.5500   10840.0000
-64.0500   10840.0000
-63.5500   10840.0000
-63.0500   10840.0000
-62.5500   10840.0000
-62.0500   10840.0000
-61.5500   10840.0000
-61.0500   10840.0000
-60.5500   10840.0000
-60.0500   10840.0000
-59.5500   10840.0000
-59.0500   10840.0000
-58.5500   10840.0000
-58.0500   10840.0000
-57.5500   10840.0000
-57.0500   10840.0000
-56.5500   10840.0000
-56.0500   10840.0000
-55.5500   10840.0000
-55.0500   10840.0000
-54.5500   10840.0000
-54.0500   10840.0000
-53.5500   10840.0000
-53.0500   10840.0000
-52.5500   10840.0000
-52.0500   10840.0000
-51.5500   10840.0000
-51.0500   10840.0000
-50.5500   10840.0000
-50.0500   10840.0000
-49.5500   10840.0000
-49.0500   10840.0000
-48.5500   10840.0000
-48.0500   10840.0000
-47.5500   10840.0000
-47.0500   10840.0000
-46.5500   10840.0000
-46.0500   10840.0000
-45.5500   10840.0000
-45.0500   10840.0000
-44.5500   10840.0000
-44.0500   10840.0000
-43.5500   10840.0000
-43.0500   10840.0000
-42.5500   10840.0000
-42.0500   10840.0000
-41.5500   10840.0000
-41.0500   10840.0000
-40.5500   10840.0000
-40.0500   10840.0000
-39.5500   10840.0000
-39.0500   10840.0000
-38.5500   10840.0000
-38.0500   10840.0000
-37.5500   10840.0000
-37.0500   10840.0000
-36.5500   10840.0000
-36.0500   10840.0000
-35.5500   10840.0000
-35.0500   10840.0000
-34.5500   10840.0000
-34.0500   10840.0000
-33.5500   10840.0000
-33.0500   10840.0000
-32.5500   10840.0000
-32.0500   10840.0000
-31.5500   10840.0000
-31.0500   10840.0000
-30.5500   10840.0000
-30.0500   10840.0000
-29.5500   10840.0000
-29.0500   10840.0000
-28.5500   10840.0000
-28.0500   10840.0000
-27.5500   10840.0000
-27.0500   10840.0000
-26.5500   10840.0000
-26.0500   10840.0000
-25.5500   10840.0000
-25.0500   10840.0000
-24.5500   10840.0000
-24.0500   10840.0000
-23.5500   10840.0000
-23.0500   10840.0000
-22.5500   10840.0000
-22.0500   10840.0000
-21.5500   10840.0000
-21.0500   10840.0000
-20.5500   10840.0000
-20.0500   10840.0000
-19.5500   10840.0000
-19.0500   10840.0000
-18.5500   10840.0000
-18.0500   10840.0000
-17.5500   10840.0000
-17.0500   10840.0000
-16.5500   10840.0000
-16.0500   10840.0000
-15.5500   10840.0000
-15.0500   10840.0000
-14.5500   10840.0000
-14.0500   10840.0000
-13.5500   10840.0000
-13.0500   10840.0000
-12.5500   10840.0000
-12.0500   10840.0000
-11.5500   10840.0000
-11.0500   10840.0000
-10.5500   10840.0000
-10.0500   10840.0000
-9.5500   10840.0000
-9.0500   10840.0000
-8.5500   10840.0000
-8.0500   10840.0000
-7.5500   10840.0000
-7.0500   10840.0000
-6.5500   10840.0000
-6.0500   10840.0000
-5.5500   10840.0000
-5.0500   10840.0000
-4.5500   10840.0000
-4.0500   10840.0000
-3.5500   10840.0000
-3.0500   10840.0000
-2.5500   10840.0000
-2.0500   10840.0000
-1.5500   10840.0000
-1.0500   10812.0163
-0.5500   10811.5494
-0.0500   10811.0017
0.4600   10810.4222
0.9700   10809.8537
1.4800   10809.2956
1.9900   10808.9706
2.5000   10808.8708
3.0100   10809.2039
3.5200   10810.4758
4.0300   10812.6028
4.5400   10816.7461
5.0500   10820.9717
5.5700   10825.4420
6.0800   10827.6288
6.5900   10829.4458
7.1000   10829.9717
7.6100   10830.7133
8.1200   10830.8132
8.6300   10831.2571
9.1400   10831.2999
9.6500   10831.6856
10.1600   10831.7139
10.6700   10832.1372
11.1800   10832.2068
11.6900   10832.7622
12.2000   10833.0409
12.7100   10833.8880
13.2200   10834.4064
13.7300   10835.3195
14.2400   10835.7568
14.7500   10836.4267
15.2600   10836.5788
15.7700   10836.9342
16.2900   10836.9400
16.8000   10837.1418
17.3100   10837.0334
17.8200   10837.2324
18.3300   10837.1316
18.8400   10837.3475
19.3500   10837.3168
19.8600   10837.5479
20.3700   10837.5213
20.8800   10837.7118
21.3900   10837.6417
21.9000   10837.7214
22.4100   10837.5510
22.9200   10837.5070
23.4300   10837.2894
23.9400   10837.2638
24.4500   10837.0696
24.9600   10837.0922
25.4700   10836.9097
25.9800   10836.8986
26.4900   10836.6693
27.0100   10836.5404
27.5200   10836.3280
28.0300   10836.2487
28.5400   10836.0849
29.0500   10836.2711
29.5600   10836.3397
30.0700   10836.6876
30.5800   10836.8349
31.0900   10837.1450
31.6000   10837.1737
32.1100   10837.3687
32.6200   10837.2805
33.1300   10837.4038
33.6400   10837.3675
34.1500   10837.5690
34.6600   10837.6002
35.1700   10837.8681
35.6800   10837.9203
36.1900   10838.1614
36.7000   10838.1847
37.2100   10838.4660
37.7300   10838.5510
38.2400   10838.9082
38.7500   10839.0860
39.2600   10839.4823
39.7700   10839.5963
40.2800   10839.7910
40.7900   10839.6588
41.3000   10839.6006
41.8100   10839.3345
42.3200   10839.2066
42.8300   10839.0016
43.3400   10838.9943
43.8500   10838.9151
44.3600   10839.0658
44.8700   10839.0492
45.3800   10839.2436
45.8900   10839.1818
46.4000   10839.3104
46.9100   10839.2233
47.4200   10839.2574
47.9300   10839.1032
48.4500   10839.0543
48.9600   10838.8712
49.4700   10838.7937
49.9800   10838.6491
50.4900   10838.6400
51.0000   10838.5096
51.5100   10838.5885
52.0200   10838.4944
52.5300   10838.5397
53.0400   10838.4374
53.5500   10838.4355
54.0600   10838.3369
54.5700   10838.3690
55.0800   10838.3332
55.5900   10838.4779
56.1000   10838.5094
56.6100   10838.6658
57.1200   10838.6609
57.6300   10838.7262
58.1400   10838.5708
58.6500   10838.5477
59.1700   10838.3563
59.6800   10838.2634
60.1900   10838.1251
60.7000   10838.1384
61.2100   10838.0924
61.7200   10838.2109
62.2300   10838.2241
62.7400   10838.3872
63.2500   10838.3880
63.7600   10838.5222
64.2700   10838.4239
64.7800   10838.4154
65.2900   10838.2498
65.8000   10838.2282
66.3100   10838.0916
66.8200   10838.0253
67.3300   10837.9321
67.8400   10837.9646
68.3500   10837.9341
68.8600   10838.0333
69.3700   10838.0512
69.8900   10838.2994
70.4000   10838.3811
70.9100   10838.6591
71.4200   10838.6786
71.9300   10838.8145
72.4400   10838.6930
72.9500   10838.6922
73.4600   10838.5195
73.9700   10838.5131
74.4800   10838.4094
74.9900   10838.4505
75.5000   10838.4265
76.0100   10838.5629
76.5200   10838.5267
77.0300   10838.5252
77.5400   10838.3679
78.0500   10838.3049
78.5600   10838.1125
79.0700   10838.0562
79.5800   10837.8648
80.0900   10837.7210
80.6100   10837.4346
81.1200   10837.1720
81.6300   10836.7867
82.1400   10836.5251
82.6500   10836.2173
83.1600   10835.9648
83.6700   10835.5587
84.1800   10834.9828
84.6900   10834.1137
85.2000   10832.5207
85.7100   10829.6829
86.2200   10809.0122
86.7300   10795.9427
87.2400   10772.1629
87.7500   10761.5528
88.2600   10759.9220
88.7700   10758.9115
89.2800   10758.0065
89.7900   10757.0035
90.3000   10756.1357
90.8100   10755.1798
91.3300   10757.1209
91.8400   10766.4953
92.3500   10799.9178
92.8600   10813.6945
93.3700   10815.3578
93.8800   10816.1521
94.3900   10816.7023
94.9000   10816.8519
95.4100   10816.9315
95.9200   10816.8468
96.4300   10816.8339
96.9400   10816.7682
97.4500   10816.8577
97.9600   10816.9426
98.4700   10817.2728
98.9800   10817.4661
99.4900   10817.8825
100.0000   10818.0408
100.5100   10818.4102
101.0200   10818.4320
101.5300   10818.6077
102.0500   10818.5354
102.5600   10818.5834
103.0700   10818.4205
103.5800   10818.4030
104.0900   10818.2214
104.6000   10818.1956
105.1100   10818.0054
105.6200   10818.0968
106.1300   10817.9853
106.6400   10818.0623
107.1500   10817.9395
107.6600   10818.0029
108.1700   10817.8447
108.6800   10817.9210
109.1900   10817.8166
109.7000   10817.9093
110.2100   10817.8448
110.7200   10818.0148
111.2300   10817.9832
111.7400   10818.1102
112.2500   10818.0096
112.7700   10818.0984
113.2800   10817.9991
113.7900   10818.0646
114.3000   10817.9163
114.8100   10817.9612
115.3200   10817.8480
115.8300   10817.9365
116.3400   10817.8501
116.8500   10818.0078
117.3600   10818.0081
117.8700   10818.2230
118.3800   10818.2194
118.8900   10818.4197
119.4000   10818.3742
119.9100   10818.5909
120.4200   10818.6231
120.9300   10818.9646
121.4400   10819.0905
121.9500   10819.5313
122.4600   10819.5833
122.9700   10819.9015
123.4900   10819.8472
124.0000   10819.9386
124.5100   10819.8102
125.0200   10819.8594
125.5300   10819.6888
126.0400   10819.8524
126.5500   10819.7699
127.0600   10819.9887
127.5700   10819.9033
128.0800   10820.0571
128.5900   10819.9448
129.1000   10820.1040
129.6100   10819.9811
130.1200   10820.1718
130.6300   10820.0964
131.1400   10820.3457
131.6500   10820.3488
132.1600   10820.7128
132.6700   10820.6855
133.1800   10820.9548
133.6900   10820.9073
134.2100   10821.0514
134.7200   10820.9363
135.2300   10821.1198
135.7400   10821.0139
136.2500   10821.2420
136.7600   10821.2148
137.2700   10821.4383
137.7800   10821.3154
138.2900   10821.4091
138.8000   10821.2194
139.3100   10821.2385
139.8200   10821.0482
140.3300   10821.0962
140.8400   10820.9615
141.3500   10821.0718
141.8600   10820.9617
142.3700   10821.1789
142.8800   10821.1739
143.3900   10821.6196
143.9000   10821.9021
144.4100   10822.6292
144.9300   10823.0096
145.4400   10823.7928
145.9500   10823.9812
146.4600   10824.3690
146.9700   10824.2020
147.4800   10824.1600
147.9900   10823.7107
148.5000   10823.4457
149.0100   10822.9697
149.5200   10822.7531
150.0300   10822.3605
150.5400   10822.1552
151.0500   10821.7443
151.5600   10821.4989
152.0700   10821.0191
152.5800   10820.7328
153.0900   10820.3831
153.6000   10820.2403
154.1100   10820.0006
154.6200   10820.0672
155.1300   10819.9574
155.6500   10820.0432
156.1600   10819.9527
156.6700   10820.0947
157.1800   10820.0324
157.6900   10820.1743
158.2000   10820.1078
158.7100   10820.2108
159.2200   10820.0248
159.7300   10820.0271
160.2400   10819.7987
160.7500   10819.8788
161.2600   10819.8118
161.7700   10819.9026
162.2800   10819.8603
162.7900   10820.0607
163.3000   10819.9408
163.8100   10820.0351
164.3200   10819.9038
164.8300   10820.0172
165.3400   10819.8448
165.8500   10819.8995
166.3700   10819.7096
166.8800   10819.7756
167.3900   10819.6579
167.9000   10819.7537
168.4100   10819.6663
168.9200   10819.8174
169.4300   10819.7222
169.9400   10819.8688
170.4500   10819.7457
170.9600   10819.8640
171.4700   10819.7991
171.9800   10819.9784
172.4900   10819.9507
173.0000   10820.1032
173.5100   10820.0521
174.0200   10820.1684
174.5300   10820.0751
175.0400   10820.2200
175.5500   10820.0951
176.0600   10820.2429
176.5700   10820.2033
177.0900   10820.3273
177.6000   10820.2487
178.1100   10820.4172
178.6200   10820.3067
179.1300   10820.4888
179.6400   10820.3922
180.1500   10820.5253
180.6600   10820.4194
181.1700   10820.5983
181.6800   10820.5458
182.1900   10820.7271
182.7000   10820.6462
183.2100   10820.7735
183.7200   10820.6394
184.2300   10820.6775
184.7400   10820.4587
185.2500   10820.4868
185.7600   10820.3080
186.2700   10820.4013
186.7800   10820.3424
187.2900   10820.5506
187.8100   10820.5207
188.3200   10820.6989
188.8300   10820.6024
189.3400   10820.7675
189.8500   10820.6038
190.3600   10820.7161
190.8700   10820.6010
191.3800   10820.7245
191.8900   10820.6021
192.4000   10820.7199
192.9100   10820.5766
193.4200   10820.6434
193.9300   10820.4766
194.4400   10820.5302
194.9500   10820.3775
195.4600   10820.4460
195.9700   10820.2871
196.4800   10820.4037
196.9900   10820.2926
197.5000   10820.3724
198.0100   10820.2581
198.5300   10820.3808
199.0400   10820.2596
199.5500   10820.3585
200.0600   10820.3041
200.5700   10820.5134
201.0800   10820.4943
201.5900   10820.7365
202.1000   10820.6960
202.6100   10820.9224
203.1200   10820.8000
203.6300   10820.9036
204.1400   10820.7093
204.6500   10820.6821
205.1600   10820.4786
205.6700   10820.5187
206.1800   10820.4020
206.6900   10820.4928
207.2000   10820.4274
207.7100   10820.6201
208.2200   10820.5654
208.7300   10820.6879
209.2500   10820.5853
209.7600   10820.7117
210.2700   10820.6542
210.7800   10820.8255
211.2900   10820.7952
211.8000   10821.0467
212.3100   10820.9945
212.8200   10821.2039
213.3300   10821.0901
213.8400   10821.1729
214.3500   10820.9450
214.8600   10820.9097
215.3700   10820.6989
215.8800   10820.7224
216.3900   10820.5807
216.9000   10820.7768
217.4100   10820.7703
217.9200   10821.0725
218.4300   10821.1328
218.9400   10821.3871
219.4500   10821.2968
219.9700   10821.4479
220.4800   10821.2447
220.9900   10821.2836
221.5000   10821.0788
222.0100   10821.1367
222.5200   10820.9821
223.0300   10821.1016
223.5400   10820.9830
224.0500   10821.0418
224.5600   10820.8676
225.0700   10820.9191
225.5800   10820.7386
226.0900   10820.8854
226.6000   10820.8109
227.1100   10820.9812
227.6200   10820.8766
228.1300   10820.9864
228.6400   10820.8188
229.1500   10820.8542
229.6600   10820.6520
230.1700   10820.6687
230.6900   10820.4873
231.2000   10820.5710
231.7100   10820.4360
232.2200   10820.5500
232.7300   10820.4544
233.2400   10820.5460
233.7500   10820.4554
234.2600   10820.5737
234.7700   10820.4882
235.2800   10820.6858
235.7900   10820.6051
236.3000   10820.7313
236.8100   10820.5688
237.3200   10820.6630
237.8300   10820.5285
238.3400   10820.7016
238.8500   10820.6514
239.3600   10820.8440
239.8700   10820.7454
240.3800   10820.8881
240.8900   10820.7651
241.4100   10820.9053
241.9200   10820.7715
242.4300   10820.9374
242.9400   10820.8025
243.4500   10820.9059
243.9600   10820.7030
244.4700   10820.6896
244.9800   10820.3959
245.4900   10820.3657
246.0000   10820.1028
246.5100   10820.0719
247.0200   10819.9039
247.5300   10820.0065
248.0400   10819.8848
248.5500   10820.0520
249.0600   10819.9827
249.5700   10820.1564
250.0800   10820.0559
250.5900   10820.1914
251.1000   10820.1193
251.6100   10820.3512
252.1300   10820.3059
252.6400   10820.4827
253.1500   10820.4246
253.6600   10820.5861
254.1700   10820.4528
254.6800   10820.5173
255.1900   10820.3353
255.7000   10820.4715
256.2100   10820.3058
256.7200   10820.4797
257.2300   10820.4234
257.7400   10820.6482
258.2500   10820.6119
258.7600   10820.8382
259.2700   10820.7046
259.7800   10820.7518
260.2900   10820.4997
260.8000   10820.4825
261.3100   10820.2482
261.8200   10820.3147
262.3300   10820.1983
262.8500   10820.4227
263.3600   10820.3784
263.8700   10820.6491
264.3800   10820.5290
264.8900   10820.6989
265.4000   10820.5737
265.9100   10820.6285
266.4200   10820.4607
266.9300   10820.5037
267.4400   10820.3538
267.9500   10820.4971
268.4600   10820.3889
268.9700   10820.5518
269.4800   10820.4910
269.9900   10820.6630
270.5000   10820.5928
271.0100   10820.7869
271.5200   10820.7308
272.0300   10820.8550
272.5400   10820.7461
273.0500   10820.8775
273.5700   10820.7205
274.0800   10820.7189
274.5900   10820.5816
275.1000   10820.6069
275.6100   10820.4644
276.1200   10820.5375
276.6300   10820.4335
277.1400   10820.6126
277.6500   10820.5051
278.1600   10820.6048
278.6700   10820.4245
279.1800   10820.5164
279.6900   10820.4055
280.2000   10820.5635
280.7100   10820.4853
281.2200   10820.6550
281.7300   10820.6454
282.2400   10820.8482
282.7500   10820.8362
283.2600   10821.0916
283.7700   10821.0441
284.2900   10821.2641
284.8000   10821.1609
285.3100   10821.2973
285.8200   10821.1281
286.3300   10821.2008
286.8400   10821.0575
287.3500   10821.0870
287.8600   10820.8993
288.3700   10821.0408
288.8800   10820.8964
289.3900   10821.0118
289.9000   10820.8880
290.4100   10821.0325
290.9200   10820.9239
291.4300   10821.0515
291.9400   10820.9770
292.4500   10821.1861
292.9600   10821.1478
293.4700   10821.3151
293.9800   10821.2341
294.4900   10821.4010
295.0100   10821.3170
295.5200   10821.4477
296.0300   10821.3374
296.5400   10821.4823
297.0500   10821.3484
297.5600   10821.3860
298.0700   10821.2144
298.5800   10821.3211
299.0900   10821.1395
299.6000   10821.2605
300.1100   10821.1595
300.6200   10821.3135
301.1300   10821.2291
301.6400   10821.3625
302.1500   10821.2522
302.6600   10821.4069
303.1700   10821.3451
303.6800   10821.5414
304.1900   10821.4755
304.7000   10821.7123
305.2100   10821.5860
