#----------------------------------
# BOTDR
# DSTS: v.07.1
# Fri Oct 22 13:54:52 2021
#
# Channel No  = 0
# Partial   = 0
# Partial Start  = 0.00
# Partial End  = 5118.55
# Fibre Length    [m]   = 5118.55  0.00
# Fiber Delay    [m]   = 118.55
# Connection Point    [m]   = 198.64
# Rpt.period      [us]  = 65
# Pulse width     [ns]  = 40
# Frequency Start [MHz] = 10690.00
# Frequency End:  [MHz] = 10990.00
# Frequency Step: [MHz] = 5.00
# No.Averages:    [-]   = 12000
# Sampling Rate   [-]   = 2 (50.00MSs, spatial step = 2.00m)
# Input Range     [-]   = 2 (1V)
# Pulse Delay     [m]   = 100
# Post Pulse Data [m]   = 0
# Fiber Type      [-]   = CH4 Land
# Fiber  temperature [C] = 27.00
# Fiber  Bril Frequency  [MHz] = 10840.00
# Fiber  Strain Coefficient  [ue/MHz] = 18.9150
# Fiber Temperature Coefficient [C/MHz] = 0.9765
# Fiber Refractive Index = 1.4682
# Fiber Sigma = 0.2000
#
#----------------------------------
2509

-118.5500   10840.0000
-116.5500   10840.0000
-114.5500   10840.0000
-112.5500   10840.0000
-110.5500   10840.0000
-108.5500   10840.0000
-106.5500   10840.0000
-104.5500   10840.0000
-102.5500   10840.0000
-100.5500   10840.0000
-98.5500   10840.0000
-96.5500   10840.0000
-94.5500   10840.0000
-92.5500   10840.0000
-90.5500   10840.0000
-88.5500   10840.0000
-86.5500   10840.0000
-84.5500   10840.0000
-82.5500   10840.0000
-80.5500   10840.0000
-78.5500   10840.0000
-76.5500   10840.0000
-74.5500   10840.0000
-72.5500   10840.0000
-70.5500   10840.0000
-68.5500   10840.0000
-66.5500   10840.0000
-64.5500   10840.0000
-62.5500   10840.0000
-60.5500   10840.0000
-58.5500   10840.0000
-56.5500   10840.0000
-54.5500   10840.0000
-52.5500   10840.0000
-50.5500   10840.0000
-48.5500   10840.0000
-46.5500   10840.0000
-44.5500   10840.0000
-42.5500   10840.0000
-40.5500   10840.0000
-38.5500   10840.0000
-36.5500   10840.0000
-34.5500   10840.0000
-32.5500   10840.0000
-30.5500   10840.0000
-28.5500   10840.0000
-26.5500   10840.0000
-24.5500   10840.0000
-22.5500   10840.0000
-20.5500   10840.0000
-18.5500   10840.0000
-16.5500   10840.0000
-14.5500   10840.0000
-12.5500   10840.0000
-10.5500   10840.0000
-8.5500   10840.0000
-6.5500   10840.0000
-4.5500   10840.0000
-2.5500   10812.1996
-0.5500   10810.7258
1.4900   10810.0512
3.5300   10818.2557
5.5800   10829.9581
7.6200   10831.3719
9.6600   10832.2380
11.7000   10833.9227
13.7400   10836.0138
15.7900   10836.8004
17.8300   10836.9760
19.8700   10837.1552
21.9100   10836.7892
23.9500   10836.4191
25.9900   10836.1279
28.0400   10836.1316
30.0800   10836.8841
32.1200   10837.8218
34.1600   10838.1832
36.2000   10839.1866
38.2500   10839.9525
40.2900   10839.5387
42.3300   10839.0367
44.3700   10838.8262
46.4100   10838.9532
48.4600   10839.1251
50.5000   10839.1075
52.5400   10839.0720
54.5800   10839.1206
56.6200   10838.8502
58.6700   10838.2925
60.7100   10838.3632
62.7500   10838.4374
64.7900   10838.5179
66.8300   10838.2212
68.8700   10838.2611
70.9200   10838.5888
72.9600   10838.5525
75.0000   10838.2381
77.0400   10838.2112
79.0800   10837.8291
81.1300   10837.1777
83.1700   10835.7809
85.2100   10807.7982
87.2500   10761.8130
89.2900   10760.6006
91.3400   10805.9978
93.3800   10815.9480
95.4200   10817.0766
97.4600   10817.1410
99.5000   10818.0069
101.5500   10818.6088
103.5900   10818.4684
105.6300   10818.2033
107.6700   10817.9458
109.7100   10817.7362
111.7500   10817.3756
113.8000   10817.3708
115.8400   10817.4871
117.8800   10818.2067
119.9200   10819.1399
121.9600   10819.4029
124.0100   10819.1890
126.0500   10819.7019
128.0900   10820.2099
130.1300   10820.6069
132.1700   10821.4298
134.2200   10821.9707
136.2600   10821.4137
138.3000   10820.8115
140.3400   10820.5257
142.3800   10821.4214
144.4300   10823.4968
146.4700   10824.4304
148.5100   10824.2389
150.5500   10823.3280
152.5900   10821.8486
154.6300   10821.1636
156.6800   10821.1537
158.7200   10821.1484
160.7600   10821.2574
162.8000   10821.2566
164.8400   10820.8056
166.8900   10820.7135
168.9300   10821.8233
170.9700   10822.5030
173.0100   10823.2847
175.0500   10824.3875
177.1000   10824.7181
179.1400   10824.8178
181.1800   10824.3330
183.2200   10824.1875
185.2600   10824.5347
187.3100   10823.9117
189.3500   10823.6948
191.3900   10824.0623
193.4300   10824.6218
195.4700   10824.6128
197.5100   10824.4422
199.5600   10824.2840
201.6000   10824.1654
203.6400   10824.5042
205.6800   10824.5857
207.7200   10824.8675
209.7700   10825.0393
211.8100   10824.6454
213.8500   10824.5550
215.8900   10825.0831
217.9300   10825.6496
219.9800   10825.1171
222.0200   10824.1203
224.0600   10824.5318
226.1000   10825.0459
228.1400   10823.9930
230.1900   10822.8744
232.2300   10822.9555
234.2700   10823.5108
236.3100   10824.0255
238.3500   10824.5084
240.3900   10824.4512
242.4400   10824.3166
244.4800   10823.4622
246.5200   10822.0516
248.5600   10821.5021
250.6000   10821.6432
252.6500   10822.1538
254.6900   10822.9760
256.7300   10822.6902
258.7700   10822.8619
260.8100   10822.8117
262.8600   10822.4437
264.9000   10822.5138
266.9400   10822.5333
268.9800   10822.4961
271.0200   10822.5318
273.0700   10822.9022
275.1100   10823.5624
277.1500   10823.5717
279.1900   10823.5723
281.2300   10823.2935
283.2700   10823.2542
285.3200   10823.7856
287.3600   10823.3746
289.4000   10822.3626
291.4400   10821.8881
293.4800   10822.4616
295.5300   10822.9426
297.5700   10822.6045
299.6100   10822.7252
301.6500   10823.2423
303.6900   10824.0260
305.7400   10824.7351
307.7800   10824.8178
309.8200   10823.9261
311.8600   10823.1689
313.9000   10823.0026
315.9500   10822.7566
317.9900   10823.2171
320.0300   10823.7049
322.0700   10823.8304
324.1100   10823.5626
326.1500   10823.9107
328.2000   10824.6574
330.2400   10824.9610
332.2800   10824.7100
334.3200   10824.3777
336.3600   10824.8092
338.4100   10825.0582
340.4500   10825.2606
342.4900   10825.3905
344.5300   10825.0283
346.5700   10824.7395
348.6200   10824.4230
350.6600   10823.8570
352.7000   10823.9690
354.7400   10825.2311
356.7800   10825.8292
358.8300   10825.7014
360.8700   10825.2744
362.9100   10824.7142
364.9500   10824.9297
366.9900   10824.8483
369.0300   10824.3875
371.0800   10824.4767
373.1200   10824.4518
375.1600   10824.6256
377.2000   10824.8931
379.2400   10825.1900
381.2900   10825.4259
383.3300   10825.1619
385.3700   10825.3782
387.4100   10825.0847
389.4500   10825.2123
391.5000   10825.3367
393.5400   10824.9946
395.5800   10824.8366
397.6200   10825.0043
399.6600   10825.4861
401.7100   10825.8809
403.7500   10826.2777
405.7900   10826.0689
407.8300   10825.5688
409.8700   10825.3001
411.9100   10825.2565
413.9600   10825.5904
416.0000   10825.3970
418.0400   10825.2278
420.0800   10825.4500
422.1200   10825.7375
424.1700   10825.8334
426.2100   10825.9747
428.2500   10825.7906
430.2900   10825.9422
432.3300   10826.2448
434.3800   10825.9265
436.4200   10825.2144
438.4600   10824.4889
440.5000   10823.9466
442.5400   10824.1431
444.5900   10824.2531
446.6300   10823.9597
448.6700   10824.0801
450.7100   10823.8765
452.7500   10823.9550
454.7900   10824.2230
456.8400   10824.5564
458.8800   10824.4468
460.9200   10823.6590
462.9600   10823.7024
465.0000   10824.0919
467.0500   10824.0033
469.0900   10824.2151
471.1300   10824.5262
473.1700   10824.8874
475.2100   10825.0584
477.2600   10825.4466
479.3000   10824.6951
481.3400   10823.9346
483.3800   10824.1843
485.4200   10824.5330
487.4700   10825.1584
489.5100   10825.8599
491.5500   10826.1265
493.5900   10825.9233
495.6300   10825.7170
497.6700   10825.7459
499.7200   10826.0981
501.7600   10825.9014
503.8000   10824.9987
505.8400   10824.6891
507.8800   10825.5145
509.9300   10825.9141
511.9700   10825.6181
514.0100   10825.8039
516.0500   10826.1294
518.0900   10826.5238
520.1400   10826.3002
522.1800   10826.3402
524.2200   10825.4445
526.2600   10824.4958
528.3000   10823.6219
530.3500   10822.6201
532.3900   10822.7318
534.4300   10822.4616
536.4700   10821.9451
538.5100   10821.0553
540.5500   10820.7642
542.6000   10820.8859
544.6400   10821.2828
546.6800   10821.0131
548.7200   10821.1522
550.7600   10821.6207
552.8100   10824.1378
554.8500   10832.7264
556.8900   10841.8721
558.9300   10843.9583
560.9700   10843.2484
563.0200   10842.5576
565.0600   10841.7657
567.1000   10841.0710
569.1400   10841.4134
571.1800   10841.8095
573.2300   10841.9510
575.2700   10842.3059
577.3100   10842.3809
579.3500   10843.5254
581.3900   10844.6961
583.4300   10845.1780
585.4800   10845.1159
587.5200   10844.8415
589.5600   10845.3109
591.6000   10845.6528
593.6400   10846.3113
595.6900   10846.5538
597.7300   10846.2622
599.7700   10845.8360
601.8100   10845.5501
603.8500   10845.1550
605.9000   10844.9742
607.9400   10844.2797
609.9800   10843.3230
612.0200   10842.5872
614.0600   10843.1158
616.1100   10843.9036
618.1500   10844.4266
620.1900   10845.4359
622.2300   10845.4140
624.2700   10845.1086
626.3100   10845.5914
628.3600   10845.9182
630.4000   10846.4292
632.4400   10847.1629
634.4800   10847.6098
636.5200   10847.9320
638.5700   10847.9934
640.6100   10848.2117
642.6500   10848.0612
644.6900   10847.7891
646.7300   10847.2234
648.7800   10847.1890
650.8200   10847.2210
652.8600   10846.6623
654.9000   10846.0492
656.9400   10845.6053
658.9900   10845.1604
661.0300   10844.4865
663.0700   10845.0788
665.1100   10846.3568
667.1500   10846.8896
669.1900   10847.9162
671.2400   10847.9997
673.2800   10847.2272
675.3200   10845.7292
677.3600   10844.2393
679.4000   10843.9840
681.4500   10844.6115
683.4900   10845.3884
685.5300   10846.5466
687.5700   10847.4711
689.6100   10848.1236
691.6600   10848.2739
693.7000   10848.1545
695.7400   10846.6986
697.7800   10844.2376
699.8200   10844.3230
701.8700   10847.4995
703.9100   10850.1807
705.9500   10852.4907
707.9900   10854.6636
710.0300   10856.0096
712.0700   10856.0885
714.1200   10855.2703
716.1600   10854.1093
718.2000   10853.6397
720.2400   10853.8547
722.2800   10853.5717
724.3300   10853.1197
726.3700   10852.7238
728.4100   10851.4270
730.4500   10851.2651
732.4900   10852.7857
734.5400   10853.8342
736.5800   10854.0970
738.6200   10854.1781
740.6600   10854.5682
742.7000   10855.0648
744.7500   10854.6873
746.7900   10854.2429
748.8300   10853.4826
750.8700   10852.8947
752.9100   10852.5698
754.9500   10852.2705
757.0000   10851.5943
759.0400   10850.5682
761.0800   10850.1501
763.1200   10851.1987
765.1600   10851.1464
767.2100   10851.0468
769.2500   10851.0084
771.2900   10850.6022
773.3300   10850.2560
775.3700   10850.6401
777.4200   10851.0950
779.4600   10851.4246
781.5000   10851.6773
783.5400   10850.9805
785.5800   10850.8502
787.6300   10851.2344
789.6700   10851.2602
791.7100   10851.2815
793.7500   10850.9849
795.7900   10850.3612
797.8300   10848.6477
799.8800   10847.3706
801.9200   10849.2342
803.9600   10850.6192
806.0000   10850.6370
808.0400   10850.3040
810.0900   10850.7873
812.1300   10850.4499
814.1700   10849.5988
816.2100   10850.2921
818.2500   10850.3776
820.3000   10850.1357
822.3400   10850.2849
824.3800   10850.4090
826.4200   10850.3376
828.4600   10850.4571
830.5100   10850.4920
832.5500   10850.3700
834.5900   10850.2219
836.6300   10849.9767
838.6700   10849.1378
840.7100   10847.5402
842.7600   10847.3267
844.8000   10848.3994
846.8400   10848.2857
848.8800   10848.4877
850.9200   10848.9762
852.9700   10849.4108
855.0100   10850.1112
857.0500   10850.2850
859.0900   10850.7544
861.1300   10850.1684
863.1800   10849.1265
865.2200   10848.2832
867.2600   10847.2701
869.3000   10845.9416
871.3400   10846.0110
873.3900   10846.7233
875.4300   10848.2693
877.4700   10849.4035
879.5100   10848.8244
881.5500   10849.1433
883.5900   10848.9431
885.6400   10848.4056
887.6800   10848.6967
889.7200   10848.3794
891.7600   10848.6490
893.8000   10848.7259
895.8500   10848.5476
897.8900   10848.4121
899.9300   10847.7684
901.9700   10847.5513
904.0100   10847.7111
906.0600   10848.2612
908.1000   10848.0864
910.1400   10847.3691
912.1800   10846.4771
914.2200   10845.7979
916.2700   10845.6462
918.3100   10846.3321
920.3500   10846.5369
922.3900   10847.1111
924.4300   10847.3384
926.4700   10847.2380
928.5200   10847.5276
930.5600   10847.4915
932.6000   10847.3442
934.6400   10847.1216
936.6800   10846.8621
938.7300   10846.0882
940.7700   10846.0351
942.8100   10845.9817
944.8500   10845.6725
946.8900   10846.7201
948.9400   10847.5840
950.9800   10847.6965
953.0200   10847.3310
955.0600   10847.6228
957.1000   10847.7911
959.1500   10848.0920
961.1900   10848.3501
963.2300   10846.2501
965.2700   10845.5331
967.3100   10848.3642
969.3500   10850.7580
971.4000   10851.6787
973.4400   10851.7088
975.4800   10851.0382
977.5200   10850.4290
979.5600   10849.8976
981.6100   10849.2846
983.6500   10849.6251
985.6900   10849.3243
987.7300   10847.5332
989.7700   10847.8790
991.8200   10849.6299
993.8600   10849.9604
995.9000   10848.9437
997.9400   10847.7496
999.9800   10846.4797
1002.0300   10845.4139
1004.0700   10844.2460
1006.1100   10843.3491
1008.1500   10842.7735
1010.1900   10842.3434
1012.2300   10841.8022
1014.2800   10842.4817
1016.3200   10845.8826
1018.3600   10848.8000
1020.4000   10849.7764
1022.4400   10850.3157
1024.4900   10850.5762
1026.5300   10850.3768
1028.5700   10850.5548
1030.6100   10850.9860
1032.6500   10851.1381
1034.7000   10849.7941
1036.7400   10847.9423
1038.7800   10848.7357
1040.8200   10850.1597
1042.8600   10851.0434
1044.9100   10851.0508
1046.9500   10851.0367
1048.9900   10851.0977
1051.0300   10851.0868
1053.0700   10850.4631
1055.1100   10849.3534
1057.1600   10846.8575
1059.2000   10843.3625
1061.2400   10841.1984
1063.2800   10841.1811
1065.3200   10841.7364
1067.3700   10842.0118
1069.4100   10843.2698
1071.4500   10845.3660
1073.4900   10847.1918
1075.5300   10848.6256
1077.5800   10849.2734
1079.6200   10848.8862
1081.6600   10846.7834
1083.7000   10845.1796
1085.7400   10846.1089
1087.7900   10848.1603
1089.8300   10849.7084
1091.8700   10850.4080
1093.9100   10850.8029
1095.9500   10851.0583
1097.9900   10851.3577
1100.0400   10852.0469
1102.0800   10852.2394
1104.1200   10851.9132
1106.1600   10850.9367
1108.2000   10849.3510
1110.2500   10848.4972
1112.2900   10850.5336
1114.3300   10852.1316
1116.3700   10852.1915
1118.4100   10851.5447
1120.4600   10851.5214
1122.5000   10851.3697
1124.5400   10850.5998
1126.5800   10849.0064
1128.6200   10845.4178
1130.6700   10842.7915
1132.7100   10842.3067
1134.7500   10845.1362
1136.7900   10848.7864
1138.8300   10850.0970
1140.8700   10850.1856
1142.9200   10850.7295
1144.9600   10850.8552
1147.0000   10851.1047
1149.0400   10850.6246
1151.0800   10850.1784
1153.1300   10850.3475
1155.1700   10849.3777
1157.2100   10847.1646
1159.2500   10847.2461
1161.2900   10849.0175
1163.3400   10849.4583
1165.3800   10849.3091
1167.4200   10849.3849
1169.4600   10849.1844
1171.5000   10848.7113
1173.5500   10847.8653
1175.5900   10847.4639
1177.6300   10846.6777
1179.6700   10845.4938
1181.7100   10845.2362
1183.7500   10846.6519
1185.8000   10848.1790
1187.8400   10848.6360
1189.8800   10848.2272
1191.9200   10847.9492
1193.9600   10847.5673
1196.0100   10847.7857
1198.0500   10848.0584
1200.0900   10847.8900
1202.1300   10847.0842
1204.1700   10845.6676
1206.2200   10845.4489
1208.2600   10847.6196
1210.3000   10849.1314
1212.3400   10848.9227
1214.3800   10848.5362
1216.4300   10848.2395
1218.4700   10848.3927
1220.5100   10848.3318
1222.5500   10848.2506
1224.5900   10848.1464
1226.6300   10847.7604
1228.6800   10847.0313
1230.7200   10846.9521
1232.7600   10848.7441
1234.8000   10849.7445
1236.8400   10849.9688
1238.8900   10849.7815
1240.9300   10849.6036
1242.9700   10849.2687
1245.0100   10848.7834
1247.0500   10848.6982
1249.1000   10848.9704
1251.1400   10848.2909
1253.1800   10846.8672
1255.2200   10846.1793
1257.2600   10847.3553
1259.3100   10848.9092
1261.3500   10850.3832
1263.3900   10851.4709
1265.4300   10851.7518
1267.4700   10851.4747
1269.5100   10850.7492
1271.5600   10850.5849
1273.6000   10849.9564
1275.6400   10848.8887
1277.6800   10847.0010
1279.7200   10845.9452
1281.7700   10846.9999
1283.8100   10848.6005
1285.8500   10849.6122
1287.8900   10849.5912
1289.9300   10849.4551
1291.9800   10849.4417
1294.0200   10849.7614
1296.0600   10849.7329
1298.1000   10848.8973
1300.1400   10847.9078
1302.1900   10845.6266
1304.2300   10844.7955
1306.2700   10846.0556
1308.3100   10847.4007
1310.3500   10848.2481
1312.3900   10848.7992
1314.4400   10848.9141
1316.4800   10848.8857
1318.5200   10849.4898
1320.5600   10848.7575
1322.6000   10847.8272
1324.6500   10846.2567
1326.6900   10844.3054
1328.7300   10844.6865
1330.7700   10846.6879
1332.8100   10847.6638
1334.8600   10848.3234
1336.9000   10849.0160
1338.9400   10849.1500
1340.9800   10849.5297
1343.0200   10849.6954
1345.0700   10849.0698
1347.1100   10848.3692
1349.1500   10846.8474
1351.1900   10845.2048
1353.2300   10845.4982
1355.2700   10846.5379
1357.3200   10846.6089
1359.3600   10846.7034
1361.4000   10847.3568
1363.4400   10848.3226
1365.4800   10847.6423
1367.5300   10847.0960
1369.5700   10847.3286
1371.6100   10847.1688
1373.6500   10846.7892
1375.6900   10845.5414
1377.7400   10844.3405
1379.7800   10845.1982
1381.8200   10846.2444
1383.8600   10846.7012
1385.9000   10847.5441
1387.9500   10847.5071
1389.9900   10847.4897
1392.0300   10847.7831
1394.0700   10847.6863
1396.1100   10846.8517
1398.1500   10845.2396
1400.2000   10843.7944
1402.2400   10844.7145
1404.2800   10846.9507
1406.3200   10848.8981
1408.3600   10849.6630
1410.4100   10849.6595
1412.4500   10849.5754
1414.4900   10849.4635
1416.5300   10848.4041
1418.5700   10848.4883
1420.6200   10848.8060
1422.6600   10847.4428
1424.7000   10844.5854
1426.7400   10842.2761
1428.7800   10843.0598
1430.8300   10844.5833
1432.8700   10845.0680
1434.9100   10844.5357
1436.9500   10844.8097
1438.9900   10845.3162
1441.0300   10844.2197
1443.0800   10842.8447
1445.1200   10842.2947
1447.1600   10841.2938
1449.2000   10841.7856
1451.2400   10841.3620
1453.2900   10841.1533
1455.3300   10840.8508
1457.3700   10841.9341
1459.4100   10844.5088
1461.4500   10845.5989
1463.5000   10844.2306
1465.5400   10843.0428
1467.5800   10842.8263
1469.6200   10842.8269
1471.6600   10843.7617
1473.7100   10844.5283
1475.7500   10845.1797
1477.7900   10844.7654
1479.8300   10843.2462
1481.8700   10843.3158
1483.9100   10843.7767
1485.9600   10843.1482
1488.0000   10841.3368
1490.0400   10841.3296
1492.0800   10843.1265
1494.1200   10844.5519
1496.1700   10845.6932
1498.2100   10846.3563
1500.2500   10847.1202
1502.2900   10846.9441
1504.3300   10846.3801
1506.3800   10846.5104
1508.4200   10847.0010
1510.4600   10847.1803
1512.5000   10847.2595
1514.5400   10847.3875
1516.5900   10847.4212
1518.6300   10847.3759
1520.6700   10847.4842
1522.7100   10847.6437
1524.7500   10847.9803
1526.7900   10848.6618
1528.8400   10848.9902
1530.8800   10848.8709
1532.9200   10848.2563
1534.9600   10847.9846
1537.0000   10847.7676
1539.0500   10848.3704
1541.0900   10849.2097
1543.1300   10849.6624
1545.1700   10850.2576
1547.2100   10850.5027
