#----------------------------------
# BOTDR
# DSTS: v.07.1
# Fri Oct 22 13:49:51 2021
#
# Channel No  = 1
# Partial   = 0
# Partial Start  = 0.00
# Partial End  = 5118.55
# Fibre Length    [m]   = 5118.55  0.00
# Fiber Delay    [m]   = 118.55
# Connection Point    [m]   = 198.64
# Rpt.period      [us]  = 65
# Pulse width     [ns]  = 40
# Frequency Start [MHz] = 10690.00
# Frequency End:  [MHz] = 10990.00
# Frequency Step: [MHz] = 5.00
# No.Averages:    [-]   = 12000
# Sampling Rate   [-]   = 2 (50.00MSs, spatial step = 2.00m)
# Input Range     [-]   = 2 (1V)
# Pulse Delay     [m]   = 100
# Post Pulse Data [m]   = 0
# Fiber Type      [-]   = CH4 Land
# Fiber  temperature [C] = 27.00
# Fiber  Bril Frequency  [MHz] = 10840.00
# Fiber  Strain Coefficient  [ue/MHz] = 18.9150
# Fiber Temperature Coefficient [C/MHz] = 0.9765
# Fiber Refractive Index = 1.4682
# Fiber Sigma = 0.2000
#
#----------------------------------
2509

-118.5500   10840.0000
-116.5500   10840.0000
-114.5500   10840.0000
-112.5500   10840.0000
-110.5500   10840.0000
-108.5500   10840.0000
-106.5500   10840.0000
-104.5500   10840.0000
-102.5500   10840.0000
-100.5500   10840.0000
-98.5500   10840.0000
-96.5500   10840.0000
-94.5500   10840.0000
-92.5500   10840.0000
-90.5500   10840.0000
-88.5500   10840.0000
-86.5500   10840.0000
-84.5500   10840.0000
-82.5500   10840.0000
-80.5500   10840.0000
-78.5500   10840.0000
-76.5500   10840.0000
-74.5500   10840.0000
-72.5500   10840.0000
-70.5500   10840.0000
-68.5500   10840.0000
-66.5500   10840.0000
-64.5500   10840.0000
-62.5500   10840.0000
-60.5500   10840.0000
-58.5500   10840.0000
-56.5500   10840.0000
-54.5500   10840.0000
-52.5500   10840.0000
-50.5500   10840.0000
-48.5500   10840.0000
-46.5500   10840.0000
-44.5500   10840.0000
-42.5500   10840.0000
-40.5500   10840.0000
-38.5500   10840.0000
-36.5500   10840.0000
-34.5500   10840.0000
-32.5500   10840.0000
-30.5500   10840.0000
-28.5500   10840.0000
-26.5500   10840.0000
-24.5500   10840.0000
-22.5500   10840.0000
-20.5500   10840.0000
-18.5500   10840.0000
-16.5500   10840.0000
-14.5500   10840.0000
-12.5500   10840.0000
-10.5500   10840.0000
-8.5500   10840.0000
-6.5500   10840.0000
-4.5500   10840.0000
-2.5500   10807.8037
-0.5500   10810.0000
1.4900   10802.0415
3.5300   10813.0869
5.5800   10831.4028
7.6200   10833.1649
9.6600   10833.6342
11.7000   10835.0325
13.7400   10837.2132
15.7900   10838.3692
17.8300   10838.5114
19.8700   10838.5943
21.9100   10838.3999
23.9500   10838.2086
25.9900   10838.1003
28.0400   10838.0073
30.0800   10838.6545
32.1200   10839.3125
34.1600   10839.6596
36.2000   10840.1946
38.2500   10840.8999
40.2900   10840.7666
42.3300   10839.9987
44.3700   10839.7428
46.4100   10839.9520
48.4600   10839.9088
50.5000   10839.9353
52.5400   10839.8122
54.5800   10840.0267
56.6200   10840.2874
58.6700   10839.7799
60.7100   10839.4879
62.7500   10839.8794
64.7900   10839.7965
66.8300   10839.4216
68.8700   10839.1577
70.9200   10839.2714
72.9600   10839.6132
75.0000   10839.4727
77.0400   10839.5701
79.0800   10839.2644
81.1300   10838.6095
83.1700   10836.5029
85.2100   10807.8407
87.2500   10760.3826
89.2900   10750.8279
91.3400   10820.0000
93.3800   10823.5141
95.4200   10825.1604
97.4600   10825.2758
99.5000   10825.6994
101.5500   10826.0250
103.5900   10825.7980
105.6300   10825.7853
107.6700   10825.7027
109.7100   10825.2223
111.7500   10824.6794
113.8000   10824.7780
115.8400   10825.3571
117.8800   10826.0210
119.9200   10826.4628
121.9600   10826.6880
124.0100   10826.8025
126.0500   10826.9762
128.0900   10826.9125
130.1300   10827.3174
132.1700   10828.2620
134.2200   10828.7869
136.2600   10828.7301
138.3000   10828.0755
140.3400   10827.8621
142.3800   10828.5094
144.4300   10830.5700
146.4700   10831.7134
148.5100   10831.6887
150.5500   10830.6949
152.5900   10829.4683
154.6300   10829.0179
156.6800   10829.0680
158.7200   10829.3284
160.7600   10829.2544
162.8000   10828.9559
164.8400   10828.8976
166.8900   10829.0736
168.9300   10829.8235
170.9700   10830.9894
173.0100   10832.1389
175.0500   10832.9407
177.1000   10832.8747
179.1400   10832.5919
181.1800   10832.6223
183.2200   10833.0645
185.2600   10833.3330
187.3100   10832.9110
189.3500   10831.9399
191.3900   10831.6153
193.4300   10831.9762
195.4700   10832.3310
197.5100   10832.5889
199.5600   10832.9920
201.6000   10832.8098
203.6400   10833.0323
205.6800   10833.2651
207.7200   10833.0640
209.7700   10833.0581
211.8100   10833.2650
213.8500   10833.2761
215.8900   10833.5018
217.9300   10834.2867
219.9800   10833.5588
222.0200   10832.3851
224.0600   10832.6092
226.1000   10833.2256
228.1400   10832.3945
230.1900   10831.7302
232.2300   10832.2783
234.2700   10832.7151
236.3100   10832.9584
238.3500   10833.5268
240.3900   10833.7739
242.4400   10833.5576
244.4800   10832.2069
246.5200   10830.3078
248.5600   10829.4419
250.6000   10829.7939
252.6500   10830.3719
254.6900   10831.1968
256.7300   10830.8126
258.7700   10830.1009
260.8100   10829.5707
262.8600   10829.7683
264.9000   10830.7479
266.9400   10831.5266
268.9800   10831.6759
271.0200   10831.6301
273.0700   10832.4670
275.1100   10833.0088
277.1500   10832.8561
279.1900   10832.2857
281.2300   10832.1720
283.2700   10831.9766
285.3200   10831.5889
287.3600   10830.9018
289.4000   10830.5178
291.4400   10830.5342
293.4800   10830.7500
295.5300   10830.4627
297.5700   10830.2744
299.6100   10830.8476
301.6500   10830.9929
303.6900   10830.6803
305.7400   10830.2355
307.7800   10830.3457
309.8200   10830.2590
311.8600   10829.8771
313.9000   10829.8530
315.9500   10830.2016
317.9900   10830.9944
320.0300   10831.2934
322.0700   10831.6927
324.1100   10832.6300
326.1500   10833.0867
328.2000   10832.8261
330.2400   10833.0827
332.2800   10833.5759
334.3200   10833.7876
336.3600   10833.9627
338.4100   10833.5469
340.4500   10833.2718
342.4900   10833.6808
344.5300   10834.4689
346.5700   10834.6471
348.6200   10834.0536
350.6600   10833.2212
352.7000   10832.8074
354.7400   10833.9041
356.7800   10835.1203
358.8300   10835.3311
360.8700   10834.7416
362.9100   10834.5198
364.9500   10834.4076
366.9900   10834.1355
369.0300   10833.7017
371.0800   10833.5190
373.1200   10833.1831
375.1600   10832.7390
377.2000   10833.2727
379.2400   10834.0054
381.2900   10833.8317
383.3300   10833.4913
385.3700   10833.0683
387.4100   10832.8661
389.4500   10833.1422
391.5000   10833.0565
393.5400   10832.8732
395.5800   10833.1872
397.6200   10833.3260
399.6600   10832.4114
401.7100   10832.4081
403.7500   10833.0358
405.7900   10833.2901
407.8300   10833.0605
409.8700   10833.0911
411.9100   10833.5656
413.9600   10833.6091
416.0000   10833.4938
418.0400   10833.3452
420.0800   10833.1642
422.1200   10833.2991
424.1700   10833.7474
426.2100   10833.9504
428.2500   10834.6254
430.2900   10834.8274
432.3300   10834.9850
434.3800   10834.8734
436.4200   10834.8425
438.4600   10834.6667
440.5000   10834.5107
442.5400   10833.9179
444.5900   10833.3972
446.6300   10833.1894
448.6700   10833.4250
450.7100   10833.5791
452.7500   10833.5601
454.7900   10833.4395
456.8400   10834.1235
458.8800   10833.5664
460.9200   10832.4588
462.9600   10831.8853
465.0000   10832.1342
467.0500   10832.3542
469.0900   10831.7625
471.1300   10831.9747
473.1700   10832.9052
475.2100   10833.5980
477.2600   10833.4202
479.3000   10832.3421
481.3400   10831.8737
483.3800   10832.2782
485.4200   10833.2426
487.4700   10833.7091
489.5100   10833.5365
491.5500   10833.3569
493.5900   10833.5320
495.6300   10833.6640
497.6700   10834.0315
499.7200   10834.2955
501.7600   10833.7593
503.8000   10832.6408
505.8400   10832.7377
507.8800   10833.2225
509.9300   10833.3055
511.9700   10833.1583
514.0100   10833.2127
516.0500   10833.2141
518.0900   10833.0552
520.1400   10832.8913
522.1800   10832.6591
524.2200   10832.5679
526.2600   10832.7172
528.3000   10832.5450
530.3500   10831.5268
532.3900   10831.2085
534.4300   10830.3433
536.4700   10829.6521
538.5100   10828.8918
540.5500   10828.5032
542.6000   10828.3546
544.6400   10828.6471
546.6800   10829.1148
548.7200   10828.8434
550.7600   10829.1367
552.8100   10831.7248
554.8500   10837.3535
556.8900   10842.0522
558.9300   10843.1326
560.9700   10842.2719
563.0200   10841.9034
565.0600   10841.3318
567.1000   10840.4111
569.1400   10840.3027
571.1800   10840.8642
573.2300   10840.9935
575.2700   10841.0722
577.3100   10841.3613
579.3500   10842.9662
581.3900   10843.9167
583.4300   10843.8755
585.4800   10844.0647
587.5200   10844.3838
589.5600   10844.8351
591.6000   10845.2955
593.6400   10845.4147
595.6900   10845.6595
597.7300   10845.5011
599.7700   10845.1270
601.8100   10845.4133
603.8500   10845.2522
605.9000   10844.7696
607.9400   10843.9995
609.9800   10843.5923
612.0200   10843.5959
614.0600   10843.0298
616.1100   10842.9051
618.1500   10843.2113
620.1900   10843.9614
622.2300   10843.8090
624.2700   10843.4823
626.3100   10844.1692
628.3600   10844.8317
630.4000   10845.1784
632.4400   10845.6407
634.4800   10845.8941
636.5200   10846.1516
638.5700   10846.2936
640.6100   10845.9090
642.6500   10844.9701
644.6900   10844.6583
646.7300   10844.7244
648.7800   10844.8679
650.8200   10844.9888
652.8600   10843.7649
654.9000   10842.4426
656.9400   10841.3498
658.9900   10842.0345
661.0300   10843.7490
663.0700   10844.9869
665.1100   10844.7482
667.1500   10844.9818
669.1900   10845.6709
671.2400   10846.2989
673.2800   10846.4390
675.3200   10845.0388
677.3600   10843.4270
679.4000   10843.9316
681.4500   10845.5821
683.4900   10845.9725
685.5300   10845.8906
687.5700   10846.2786
689.6100   10845.8778
691.6600   10846.1682
693.7000   10846.7814
695.7400   10846.0698
697.7800   10844.1795
699.8200   10844.6524
701.8700   10848.4494
703.9100   10851.7366
705.9500   10853.3531
707.9900   10855.3270
710.0300   10856.2801
712.0700   10855.8285
714.1200   10855.2010
716.1600   10854.5807
718.2000   10854.0014
720.2400   10853.7425
722.2800   10853.4232
724.3300   10853.4748
726.3700   10853.4142
728.4100   10852.6951
730.4500   10853.0439
732.4900   10853.8054
734.5400   10853.9076
736.5800   10854.7434
738.6200   10855.2312
740.6600   10854.9397
742.7000   10854.7607
744.7500   10853.9858
746.7900   10853.3620
748.8300   10852.8314
750.8700   10852.5563
752.9100   10852.5388
754.9500   10852.0173
757.0000   10851.4939
759.0400   10850.5959
761.0800   10849.1877
763.1200   10849.4630
765.1600   10849.5584
767.2100   10849.5574
769.2500   10849.7647
771.2900   10849.7431
773.3300   10848.9077
775.3700   10848.4741
777.4200   10848.4836
779.4600   10848.1385
781.5000   10848.2634
783.5400   10848.2951
785.5800   10847.8537
787.6300   10847.7221
789.6700   10847.9484
791.7100   10847.5121
793.7500   10847.1934
795.7900   10846.6287
797.8300   10845.3738
799.8800   10844.6667
801.9200   10846.1425
803.9600   10847.7857
806.0000   10848.2115
808.0400   10848.1594
810.0900   10847.8125
812.1300   10847.5849
814.1700   10847.4663
816.2100   10847.6181
818.2500   10848.0438
820.3000   10848.1673
822.3400   10847.9481
824.3800   10847.7964
826.4200   10847.6994
828.4600   10848.1128
830.5100   10848.3267
832.5500   10848.5794
834.5900   10848.7284
836.6300   10848.5788
838.6700   10847.6813
840.7100   10846.1153
842.7600   10845.4681
844.8000   10846.1810
846.8400   10846.0857
848.8800   10846.2295
850.9200   10846.4763
852.9700   10846.8092
855.0100   10846.8068
857.0500   10846.8823
859.0900   10846.6318
861.1300   10845.9915
863.1800   10845.0958
865.2200   10844.3124
867.2600   10843.7470
869.3000   10844.2572
871.3400   10845.0857
873.3900   10845.0955
875.4300   10844.2653
877.4700   10843.7891
879.5100   10843.9647
881.5500   10844.5764
883.5900   10845.6199
885.6400   10846.4408
887.6800   10846.7765
889.7200   10846.5934
891.7600   10846.3799
893.8000   10845.9511
895.8500   10845.8985
897.8900   10845.8891
899.9300   10845.1753
901.9700   10844.5083
904.0100   10844.4503
906.0600   10844.8656
908.1000   10845.1166
910.1400   10844.7169
912.1800   10844.0251
914.2200   10843.3071
916.2700   10843.7298
918.3100   10843.7014
920.3500   10843.6431
922.3900   10843.9337
924.4300   10843.7600
926.4700   10843.5721
928.5200   10843.4946
930.5600   10843.5455
932.6000   10843.7527
934.6400   10843.8043
936.6800   10843.6859
938.7300   10842.7418
940.7700   10841.5816
942.8100   10841.8942
944.8500   10842.4744
946.8900   10842.6840
948.9400   10842.9066
950.9800   10843.1713
953.0200   10842.7238
955.0600   10843.3036
957.1000   10843.5869
959.1500   10843.2841
961.1900   10843.1448
963.2300   10842.0561
965.2700   10842.2622
967.3100   10844.7906
969.3500   10847.1100
971.4000   10848.2690
973.4400   10848.1100
975.4800   10847.7671
977.5200   10847.9576
979.5600   10847.8459
981.6100   10847.0703
983.6500   10846.1194
985.6900   10845.4602
987.7300   10844.3726
989.7700   10844.7089
991.8200   10846.3999
993.8600   10846.9908
995.9000   10846.2137
997.9400   10845.0044
999.9800   10843.7192
1002.0300   10842.5479
1004.0700   10841.6593
1006.1100   10841.7492
1008.1500   10841.3393
1010.1900   10840.2968
1012.2300   10840.2778
1014.2800   10841.9705
1016.3200   10844.4518
1018.3600   10845.9193
1020.4000   10846.0215
1022.4400   10846.1348
1024.4900   10846.8443
1026.5300   10847.3062
1028.5700   10847.3766
1030.6100   10847.3713
1032.6500   10847.5485
1034.7000   10846.4917
1036.7400   10845.2438
1038.7800   10846.7382
1040.8200   10848.9301
1042.8600   10848.9157
1044.9100   10848.9710
1046.9500   10848.4965
1048.9900   10847.4865
1051.0300   10846.7159
1053.0700   10845.9846
1055.1100   10844.8161
1057.1600   10842.1815
1059.2000   10839.8941
1061.2400   10838.5281
1063.2800   10838.4877
1065.3200   10839.2107
1067.3700   10840.8710
1069.4100   10841.7933
1071.4500   10842.5440
1073.4900   10843.1590
1075.5300   10843.3447
1077.5800   10844.1647
1079.6200   10845.1510
1081.6600   10845.4530
1083.7000   10844.4655
1085.7400   10843.4397
1087.7900   10844.8462
1089.8300   10845.4512
1091.8700   10845.3671
1093.9100   10845.4419
1095.9500   10845.9570
1097.9900   10846.7684
1100.0400   10847.6334
1102.0800   10848.1181
1104.1200   10847.6811
1106.1600   10847.0990
1108.2000   10846.1972
1110.2500   10845.5639
1112.2900   10847.4121
1114.3300   10848.7000
1116.3700   10848.6844
1118.4100   10848.6355
1120.4600   10848.1340
1122.5000   10847.6321
1124.5400   10847.6446
1126.5800   10845.8538
1128.6200   10842.5322
1130.6700   10840.1831
1132.7100   10839.6748
1134.7500   10841.9109
1136.7900   10845.0701
1138.8300   10846.6644
1140.8700   10847.7657
1142.9200   10847.8711
1144.9600   10847.9418
1147.0000   10847.8653
1149.0400   10846.9116
1151.0800   10846.8694
1153.1300   10846.6754
1155.1700   10845.9351
1157.2100   10844.7036
1159.2500   10844.6160
1161.2900   10846.1869
1163.3400   10846.8384
1165.3800   10846.7068
1167.4200   10846.6874
1169.4600   10846.8830
1171.5000   10847.0772
1173.5500   10847.8106
1175.5900   10848.1356
1177.6300   10847.7253
1179.6700   10846.2990
1181.7100   10844.2353
1183.7500   10844.4609
1185.8000   10846.4841
1187.8400   10847.8717
1189.8800   10848.6011
1191.9200   10849.0916
1193.9600   10849.1457
1196.0100   10849.2788
1198.0500   10849.6224
1200.0900   10849.2565
1202.1300   10848.6492
1204.1700   10846.8418
1206.2200   10844.6792
1208.2600   10845.0747
1210.3000   10846.9949
1212.3400   10848.1284
1214.3800   10848.5199
1216.4300   10848.9635
1218.4700   10848.9319
1220.5100   10848.7042
1222.5500   10848.8622
1224.5900   10848.7888
1226.6300   10847.5579
1228.6800   10845.1839
1230.7200   10843.7637
1232.7600   10845.3435
1234.8000   10846.5931
1236.8400   10846.8928
1238.8900   10847.1469
1240.9300   10848.2219
1242.9700   10849.0130
1245.0100   10849.1890
1247.0500   10848.4693
1249.1000   10847.7189
1251.1400   10846.9504
1253.1800   10845.1836
1255.2200   10845.2523
1257.2600   10847.5896
1259.3100   10848.2590
1261.3500   10848.0175
1263.3900   10848.0107
1265.4300   10847.8460
1267.4700   10847.7757
1269.5100   10847.2551
1271.5600   10846.4379
1273.6000   10845.5715
1275.6400   10844.9884
1277.6800   10843.6029
1279.7200   10843.9009
1281.7700   10846.4333
1283.8100   10847.2893
1285.8500   10847.1345
1287.8900   10847.5423
1289.9300   10847.6452
1291.9800   10847.4991
1294.0200   10847.2948
1296.0600   10847.2114
1298.1000   10846.9824
1300.1400   10846.0886
1302.1900   10844.6249
1304.2300   10845.1518
1306.2700   10847.2921
1308.3100   10848.1734
1310.3500   10847.7771
1312.3900   10847.9779
1314.4400   10848.4448
1316.4800   10847.9951
1318.5200   10847.9686
1320.5600   10847.7891
1322.6000   10847.6768
1324.6500   10846.6432
1326.6900   10844.3940
1328.7300   10843.6356
1330.7700   10845.2902
1332.8100   10847.0222
1334.8600   10848.1592
1336.9000   10849.2156
1338.9400   10849.7625
1340.9800   10849.5264
1343.0200   10849.2234
1345.0700   10848.7969
1347.1100   10847.7615
1349.1500   10846.5437
1351.1900   10844.9800
1353.2300   10845.2970
1355.2700   10847.7875
1357.3200   10849.3431
1359.3600   10848.8211
1361.4000   10848.4307
1363.4400   10848.9571
1365.4800   10849.0087
1367.5300   10849.1073
1369.5700   10849.4179
1371.6100   10848.7034
1373.6500   10846.0708
1375.6900   10842.9217
1377.7400   10841.6400
1379.7800   10843.5848
1381.8200   10847.0983
1383.8600   10849.0548
1385.9000   10849.5905
1387.9500   10849.5779
1389.9900   10848.8282
1392.0300   10848.0272
1394.0700   10847.1186
1396.1100   10846.0945
1398.1500   10845.3178
1400.2000   10843.7888
1402.2400   10845.6464
1404.2800   10848.3072
1406.3200   10849.2408
1408.3600   10849.4932
1410.4100   10849.8802
1412.4500   10849.8061
1414.4900   10849.6357
1416.5300   10848.8584
1418.5700   10848.5298
1420.6200   10848.8206
1422.6600   10847.1335
1424.7000   10843.9989
1426.7400   10841.9095
1428.7800   10843.4090
1430.8300   10845.1959
1432.8700   10845.8398
1434.9100   10845.3388
1436.9500   10845.0620
1438.9900   10844.8808
1441.0300   10843.7773
1443.0800   10841.8754
1445.1200   10840.2722
1447.1600   10839.2873
1449.2000   10839.1792
1451.2400   10838.6557
1453.2900   10838.9444
1455.3300   10839.6361
1457.3700   10840.4202
1459.4100   10842.1691
1461.4500   10843.5608
1463.5000   10843.3386
1465.5400   10842.3116
1467.5800   10842.1704
1469.6200   10843.8226
1471.6600   10845.0639
1473.7100   10845.0952
1475.7500   10845.5838
1477.7900   10845.5000
1479.8300   10844.6720
1481.8700   10844.5572
1483.9100   10844.9926
1485.9600   10844.0535
1488.0000   10843.2431
1490.0400   10843.3864
1492.0800   10844.9249
1494.1200   10845.8587
1496.1700   10846.5255
1498.2100   10847.0963
1500.2500   10847.7555
1502.2900   10847.5177
1504.3300   10847.3076
1506.3800   10846.8188
1508.4200   10847.2225
1510.4600   10848.3191
1512.5000   10848.7428
1514.5400   10848.5233
1516.5900   10848.2987
1518.6300   10847.3805
1520.6700   10845.8296
1522.7100   10845.0589
1524.7500   10846.5145
1526.7900   10848.1974
1528.8400   10848.5816
1530.8800   10848.3745
1532.9200   10847.6790
1534.9600   10847.1613
1537.0000   10847.3264
1539.0500   10848.1043
1541.0900   10849.1691
1543.1300   10849.8789
1545.1700   10850.3686
1547.2100   10850.6494
