#----------------------------------
# BOTDR
# DSTS: v.07.1
# Fri Oct 22 13:51:55 2021
#
# Channel No  = 0
# Partial   = 0
# Partial Start  = 0.00
# Partial End  = 5118.55
# Fibre Length    [m]   = 5118.55  0.00
# Fiber Delay    [m]   = 118.55
# Connection Point    [m]   = 198.64
# Rpt.period      [us]  = 65
# Pulse width     [ns]  = 40
# Frequency Start [MHz] = 10690.00
# Frequency End:  [MHz] = 10990.00
# Frequency Step: [MHz] = 5.00
# No.Averages:    [-]   = 12000
# Sampling Rate   [-]   = 2 (50.00MSs, spatial step = 2.00m)
# Input Range     [-]   = 2 (1V)
# Pulse Delay     [m]   = 100
# Post Pulse Data [m]   = 0
# Fiber Type      [-]   = CH4 Land
# Fiber  temperature [C] = 27.00
# Fiber  Bril Frequency  [MHz] = 10840.00
# Fiber  Strain Coefficient  [ue/MHz] = 18.9150
# Fiber Temperature Coefficient [C/MHz] = 0.9765
# Fiber Refractive Index = 1.4682
# Fiber Sigma = 0.2000
#
#----------------------------------
2509

-118.5500   10840.0000
-116.5500   10840.0000
-114.5500   10840.0000
-112.5500   10840.0000
-110.5500   10840.0000
-108.5500   10840.0000
-106.5500   10840.0000
-104.5500   10840.0000
-102.5500   10840.0000
-100.5500   10840.0000
-98.5500   10840.0000
-96.5500   10840.0000
-94.5500   10840.0000
-92.5500   10840.0000
-90.5500   10840.0000
-88.5500   10840.0000
-86.5500   10840.0000
-84.5500   10840.0000
-82.5500   10840.0000
-80.5500   10840.0000
-78.5500   10840.0000
-76.5500   10840.0000
-74.5500   10840.0000
-72.5500   10840.0000
-70.5500   10840.0000
-68.5500   10840.0000
-66.5500   10840.0000
-64.5500   10840.0000
-62.5500   10840.0000
-60.5500   10840.0000
-58.5500   10840.0000
-56.5500   10840.0000
-54.5500   10840.0000
-52.5500   10840.0000
-50.5500   10840.0000
-48.5500   10840.0000
-46.5500   10840.0000
-44.5500   10840.0000
-42.5500   10840.0000
-40.5500   10840.0000
-38.5500   10840.0000
-36.5500   10840.0000
-34.5500   10840.0000
-32.5500   10840.0000
-30.5500   10840.0000
-28.5500   10840.0000
-26.5500   10840.0000
-24.5500   10840.0000
-22.5500   10840.0000
-20.5500   10840.0000
-18.5500   10840.0000
-16.5500   10840.0000
-14.5500   10840.0000
-12.5500   10840.0000
-10.5500   10840.0000
-8.5500   10840.0000
-6.5500   10840.0000
-4.5500   10840.0000
-2.5500   10812.0164
-0.5500   10809.9029
1.4900   10809.1776
3.5300   10818.2659
5.5800   10829.7744
7.6200   10831.4283
9.6600   10832.1898
11.7000   10834.1899
13.7400   10836.2747
15.7900   10837.2401
17.8300   10837.4458
19.8700   10837.4054
21.9100   10837.1841
23.9500   10836.4766
25.9900   10835.9376
28.0400   10836.4683
30.0800   10837.0034
32.1200   10837.6303
34.1600   10837.9843
36.2000   10838.7889
38.2500   10839.6914
40.2900   10839.6169
42.3300   10838.9516
44.3700   10838.4605
46.4100   10838.4534
48.4600   10838.8429
50.5000   10839.1587
52.5400   10838.7647
54.5800   10838.4088
56.6200   10838.2221
58.6700   10838.0026
60.7100   10838.1068
62.7500   10838.0515
64.7900   10838.2561
66.8300   10838.4008
68.8700   10838.4460
70.9200   10838.3011
72.9600   10838.4795
75.0000   10838.3499
77.0400   10838.1465
79.0800   10838.0229
81.1300   10837.3838
83.1700   10835.6081
85.2100   10806.5067
87.2500   10758.6200
89.2900   10750.6652
91.3400   10786.6761
93.3800   10816.2589
95.4200   10817.0011
97.4600   10817.1840
99.5000   10817.8498
101.5500   10818.6114
103.5900   10818.5203
105.6300   10817.9620
107.6700   10817.6871
109.7100   10817.5211
111.7500   10817.5236
113.8000   10817.7871
115.8400   10817.9775
117.8800   10818.3093
119.9200   10819.3175
121.9600   10819.4850
124.0100   10819.5629
126.0500   10819.7116
128.0900   10820.2903
130.1300   10820.8737
132.1700   10821.7490
134.2200   10821.8481
136.2600   10821.4173
138.3000   10821.0646
140.3400   10820.3714
142.3800   10820.6661
144.4300   10823.3520
146.4700   10824.4861
148.5100   10824.0762
150.5500   10823.0492
152.5900   10821.4696
154.6300   10820.7273
156.6800   10821.1991
158.7200   10821.1068
160.7600   10821.1319
162.8000   10820.9601
164.8400   10820.4997
166.8900   10820.6427
168.9300   10821.3811
170.9700   10821.6682
173.0100   10822.1139
175.0500   10822.3217
177.1000   10822.6714
179.1400   10823.2873
181.1800   10823.3449
183.2200   10823.1196
185.2600   10822.9119
187.3100   10822.0581
189.3500   10822.1350
191.3900   10822.8899
193.4300   10823.3457
195.4700   10823.0449
197.5100   10822.5983
199.5600   10822.7855
201.6000   10822.8743
203.6400   10823.0917
205.6800   10823.5773
207.7200   10823.8992
209.7700   10823.7171
211.8100   10823.5498
213.8500   10823.7398
215.8900   10823.8834
217.9300   10824.4486
219.9800   10824.0629
222.0200   10823.4906
224.0600   10824.0793
226.1000   10825.2111
228.1400   10824.2153
230.1900   10823.2485
232.2300   10823.1971
234.2700   10823.3175
236.3100   10823.4548
238.3500   10823.7917
240.3900   10824.2211
242.4400   10824.1601
244.4800   10823.2526
246.5200   10821.9592
248.5600   10822.0259
250.6000   10822.3671
252.6500   10822.8196
254.6900   10823.2830
256.7300   10822.5897
258.7700   10822.1347
260.8100   10821.9587
262.8600   10822.0050
264.9000   10822.3396
266.9400   10822.3881
268.9800   10822.6015
271.0200   10823.0323
273.0700   10822.8166
275.1100   10822.7392
277.1500   10822.4779
279.1900   10822.5757
281.2300   10823.0415
283.2700   10822.8267
285.3200   10822.6644
287.3600   10822.1549
289.4000   10821.4949
291.4400   10821.4008
293.4800   10821.5115
295.5300   10821.8873
297.5700   10821.8496
299.6100   10822.0765
301.6500   10822.1041
303.6900   10822.2484
305.7400   10822.0998
307.7800   10821.8863
309.8200   10821.6545
311.8600   10821.3847
313.9000   10821.1281
315.9500   10821.0502
317.9900   10821.4855
320.0300   10822.2199
322.0700   10822.2125
324.1100   10821.8840
326.1500   10822.0726
328.2000   10822.3996
330.2400   10823.2738
332.2800   10823.5077
334.3200   10823.7520
336.3600   10823.9313
338.4100   10823.3630
340.4500   10823.7333
342.4900   10824.5024
344.5300   10824.7174
346.5700   10824.8657
348.6200   10824.3190
350.6600   10823.7966
352.7000   10823.7187
354.7400   10824.0582
356.7800   10824.3119
358.8300   10824.2947
360.8700   10824.2249
362.9100   10824.0422
364.9500   10823.5296
366.9900   10823.4958
369.0300   10823.7681
371.0800   10823.9547
373.1200   10823.6040
375.1600   10823.2239
377.2000   10823.5554
379.2400   10823.9147
381.2900   10823.5922
383.3300   10823.4316
385.3700   10823.3652
387.4100   10823.4205
389.4500   10822.9828
391.5000   10822.8490
393.5400   10822.8349
395.5800   10822.9343
397.6200   10822.9938
399.6600   10823.2710
401.7100   10823.5054
403.7500   10823.5807
405.7900   10822.9737
407.8300   10823.0851
409.8700   10823.2436
411.9100   10823.3146
413.9600   10823.2986
416.0000   10823.4673
418.0400   10823.5823
420.0800   10823.5738
422.1200   10823.7898
424.1700   10824.1553
426.2100   10824.4442
428.2500   10824.4632
430.2900   10824.4377
432.3300   10824.7619
434.3800   10825.3269
436.4200   10825.1577
438.4600   10824.8449
440.5000   10824.4960
442.5400   10824.4278
444.5900   10824.1933
446.6300   10823.8765
448.6700   10823.9224
450.7100   10824.1572
452.7500   10824.0275
454.7900   10823.9058
456.8400   10824.1776
458.8800   10824.1142
460.9200   10823.6693
462.9600   10823.3288
465.0000   10822.7239
467.0500   10822.4497
469.0900   10822.5958
471.1300   10823.5201
473.1700   10823.9708
475.2100   10823.7578
477.2600   10823.7594
479.3000   10823.2649
481.3400   10822.3423
483.3800   10822.4133
485.4200   10822.9762
487.4700   10823.2201
489.5100   10823.2743
491.5500   10823.8356
493.5900   10823.6009
495.6300   10823.5289
497.6700   10823.6065
499.7200   10823.7397
501.7600   10823.7041
503.8000   10822.8849
505.8400   10822.7220
507.8800   10823.0127
509.9300   10822.6374
511.9700   10822.9721
514.0100   10823.1514
516.0500   10823.0573
518.0900   10823.2530
520.1400   10823.0118
522.1800   10822.7629
524.2200   10822.6376
526.2600   10822.3478
528.3000   10822.3149
530.3500   10822.2868
532.3900   10822.7326
534.4300   10822.3480
536.4700   10821.4434
538.5100   10820.5861
540.5500   10820.4231
542.6000   10820.7494
544.6400   10821.0464
546.6800   10821.0985
548.7200   10821.0287
550.7600   10821.2721
552.8100   10823.7496
554.8500   10832.5756
556.8900   10842.0086
558.9300   10843.4644
560.9700   10842.6456
563.0200   10842.5399
565.0600   10842.2711
567.1000   10841.3544
569.1400   10841.8866
571.1800   10841.7597
573.2300   10841.4973
575.2700   10842.0752
577.3100   10842.3154
579.3500   10843.4857
581.3900   10844.0552
583.4300   10844.1518
585.4800   10844.0228
587.5200   10844.0287
589.5600   10844.6980
591.6000   10845.0371
593.6400   10845.0189
595.6900   10845.0313
597.7300   10844.9200
599.7700   10844.5701
601.8100   10843.9363
603.8500   10843.3145
605.9000   10843.5657
607.9400   10842.7976
609.9800   10841.9459
612.0200   10841.8931
614.0600   10842.2179
616.1100   10842.3684
618.1500   10842.7425
620.1900   10843.4378
622.2300   10843.5532
624.2700   10843.6857
626.3100   10844.1384
628.3600   10844.4172
630.4000   10844.5347
632.4400   10844.8217
634.4800   10845.3039
636.5200   10845.1071
638.5700   10845.0306
640.6100   10845.3762
642.6500   10845.4295
644.6900   10844.8802
646.7300   10844.0196
648.7800   10843.5365
650.8200   10843.6022
652.8600   10843.3108
654.9000   10842.5396
656.9400   10842.5941
658.9900   10843.1445
661.0300   10843.7542
663.0700   10844.5130
665.1100   10844.8367
667.1500   10844.6332
669.1900   10844.9854
671.2400   10845.7173
673.2800   10845.8776
675.3200   10845.2696
677.3600   10844.4189
679.4000   10844.6219
681.4500   10845.6995
683.4900   10846.1888
685.5300   10846.6750
687.5700   10846.8390
689.6100   10847.3529
691.6600   10847.2837
693.7000   10847.4807
695.7400   10846.7642
697.7800   10844.9263
699.8200   10845.4251
701.8700   10848.7086
703.9100   10851.0188
705.9500   10852.2175
707.9900   10854.2411
710.0300   10855.6376
712.0700   10855.2279
714.1200   10854.3425
716.1600   10853.5968
718.2000   10853.4849
720.2400   10853.2732
722.2800   10853.3475
724.3300   10853.7744
726.3700   10853.9240
728.4100   10853.1738
730.4500   10853.3582
732.4900   10853.8829
734.5400   10853.9095
736.5800   10853.9290
738.6200   10854.4071
740.6600   10854.5186
742.7000   10854.4868
744.7500   10854.1096
746.7900   10853.0602
748.8300   10852.3645
750.8700   10852.1639
752.9100   10852.0968
754.9500   10852.2633
757.0000   10851.2469
759.0400   10849.9175
761.0800   10849.1363
763.1200   10849.3320
765.1600   10849.5890
767.2100   10849.2978
769.2500   10849.2043
771.2900   10848.9309
773.3300   10848.7486
775.3700   10848.7058
777.4200   10848.9564
779.4600   10848.8135
781.5000   10848.3598
783.5400   10848.1763
785.5800   10848.2698
787.6300   10848.6221
789.6700   10848.8898
791.7100   10848.7312
793.7500   10848.3176
795.7900   10847.6219
797.8300   10846.9630
799.8800   10846.4871
801.9200   10847.9414
803.9600   10849.2718
806.0000   10849.6790
808.0400   10849.3622
810.0900   10849.1503
812.1300   10848.5387
814.1700   10848.0894
816.2100   10848.3606
818.2500   10848.5575
820.3000   10848.4600
822.3400   10848.6270
824.3800   10848.8941
826.4200   10849.0745
828.4600   10849.2533
830.5100   10849.2361
832.5500   10848.5465
834.5900   10848.2642
836.6300   10848.5031
838.6700   10847.8922
840.7100   10846.7134
842.7600   10846.2106
844.8000   10846.2478
846.8400   10846.6080
848.8800   10847.2105
850.9200   10847.5122
852.9700   10847.8251
855.0100   10847.9643
857.0500   10848.5430
859.0900   10848.7532
861.1300   10848.4196
863.1800   10847.4633
865.2200   10846.4099
867.2600   10845.0444
869.3000   10845.5646
871.3400   10846.4918
873.3900   10846.4100
875.4300   10846.7000
877.4700   10847.0633
879.5100   10847.1367
881.5500   10847.9685
883.5900   10847.9115
885.6400   10847.5885
887.6800   10847.5664
889.7200   10847.4676
891.7600   10847.5365
893.8000   10847.7143
895.8500   10847.5365
897.8900   10847.5025
899.9300   10847.0923
901.9700   10846.6045
904.0100   10846.5429
906.0600   10846.7732
908.1000   10846.9137
910.1400   10846.5513
912.1800   10846.0505
914.2200   10844.8858
916.2700   10845.0713
918.3100   10845.9949
920.3500   10846.2838
922.3900   10846.7122
924.4300   10846.8313
926.4700   10846.7460
928.5200   10846.9698
930.5600   10846.9363
932.6000   10846.6303
934.6400   10846.3943
936.6800   10846.0482
938.7300   10845.0202
940.7700   10845.2757
942.8100   10845.3613
944.8500   10845.1360
946.8900   10845.7101
948.9400   10846.0752
950.9800   10846.1519
953.0200   10846.0723
955.0600   10846.1281
957.1000   10846.1858
959.1500   10846.3217
961.1900   10846.6616
963.2300   10845.2277
965.2700   10844.7214
967.3100   10846.8619
969.3500   10849.6022
971.4000   10851.1353
973.4400   10850.4198
975.4800   10849.9301
977.5200   10849.7228
979.5600   10849.4676
981.6100   10849.1154
983.6500   10848.5985
985.6900   10848.5545
987.7300   10846.9710
989.7700   10847.5403
991.8200   10849.5591
993.8600   10849.9666
995.9000   10848.6750
997.9400   10847.0161
999.9800   10845.8327
1002.0300   10845.0780
1004.0700   10844.0436
1006.1100   10843.5793
1008.1500   10843.5321
1010.1900   10843.1875
1012.2300   10842.2684
1014.2800   10843.3267
1016.3200   10846.1643
1018.3600   10848.3608
1020.4000   10849.4145
1022.4400   10849.4092
1024.4900   10849.1140
1026.5300   10849.2840
1028.5700   10850.0522
1030.6100   10850.9279
1032.6500   10850.8369
1034.7000   10849.3717
1036.7400   10847.5774
1038.7800   10848.2463
1040.8200   10849.9255
1042.8600   10850.5227
1044.9100   10850.8018
1046.9500   10850.6759
1048.9900   10850.5356
1051.0300   10850.0129
1053.0700   10849.1751
1055.1100   10847.7452
1057.1600   10845.2692
1059.2000   10842.3986
1061.2400   10840.9642
1063.2800   10840.7846
1065.3200   10841.6323
1067.3700   10842.9525
1069.4100   10843.9966
1071.4500   10845.5766
1073.4900   10846.9934
1075.5300   10848.0115
1077.5800   10848.5303
1079.6200   10848.5118
1081.6600   10848.1690
1083.7000   10846.3252
1085.7400   10846.1284
1087.7900   10848.3848
1089.8300   10849.5315
1091.8700   10849.5219
1093.9100   10849.8255
1095.9500   10850.6564
1097.9900   10851.0892
1100.0400   10851.1210
1102.0800   10851.1810
1104.1200   10850.9572
1106.1600   10850.5299
1108.2000   10849.0143
1110.2500   10848.7963
1112.2900   10850.2893
1114.3300   10851.3252
1116.3700   10851.9385
1118.4100   10851.8709
1120.4600   10851.0422
1122.5000   10850.7335
1124.5400   10850.4269
1126.5800   10848.9773
1128.6200   10845.5723
1130.6700   10842.6006
1132.7100   10841.5201
1134.7500   10844.1055
1136.7900   10847.9550
1138.8300   10849.1441
1140.8700   10849.7873
1142.9200   10850.0726
1144.9600   10850.5945
1147.0000   10850.6005
1149.0400   10849.9378
1151.0800   10848.8870
1153.1300   10848.3221
1155.1700   10847.8277
1157.2100   10846.8079
1159.2500   10846.7256
1161.2900   10848.1063
1163.3400   10848.9473
1165.3800   10848.1433
1167.4200   10847.2762
1169.4600   10847.1044
1171.5000   10847.1230
1173.5500   10847.8023
1175.5900   10847.9221
1177.6300   10847.5008
1179.6700   10846.4630
1181.7100   10845.2388
1183.7500   10845.4414
1185.8000   10846.2667
1187.8400   10847.2177
1189.8800   10848.0633
1191.9200   10848.7753
1193.9600   10849.3125
1196.0100   10849.7682
1198.0500   10850.3928
1200.0900   10850.3674
1202.1300   10849.2114
1204.1700   10847.0895
1206.2200   10845.4107
1208.2600   10846.8304
1210.3000   10848.8503
1212.3400   10849.4345
1214.3800   10849.8323
1216.4300   10849.5278
1218.4700   10848.9184
1220.5100   10848.9545
1222.5500   10849.2996
1224.5900   10848.9587
1226.6300   10847.9988
1228.6800   10846.8056
1230.7200   10846.7981
1232.7600   10848.8708
1234.8000   10849.9841
1236.8400   10849.2929
1238.8900   10848.8152
1240.9300   10848.9286
1242.9700   10849.3549
1245.0100   10850.0997
1247.0500   10850.6017
1249.1000   10850.3379
1251.1400   10849.4854
1253.1800   10847.4259
1255.2200   10846.2261
1257.2600   10848.4993
1259.3100   10850.6020
1261.3500   10851.0566
1263.3900   10851.0293
1265.4300   10851.1549
1267.4700   10851.2659
1269.5100   10850.9308
1271.5600   10850.1167
1273.6000   10849.3914
1275.6400   10848.5597
1277.6800   10847.1188
1279.7200   10847.0068
1281.7700   10848.7342
1283.8100   10850.2768
1285.8500   10850.1277
1287.8900   10849.8417
1289.9300   10849.8742
1291.9800   10850.4401
1294.0200   10850.7074
1296.0600   10850.5477
1298.1000   10849.9845
1300.1400   10849.3936
1302.1900   10847.6225
1304.2300   10846.8789
1306.2700   10848.3444
1308.3100   10849.6939
1310.3500   10849.9647
1312.3900   10850.0837
1314.4400   10849.9233
1316.4800   10850.3360
1318.5200   10850.2794
1320.5600   10849.8094
1322.6000   10849.4346
1324.6500   10848.2731
1326.6900   10846.2859
1328.7300   10845.6428
1330.7700   10847.3303
1332.8100   10848.6193
1334.8600   10849.4686
1336.9000   10850.3287
1338.9400   10851.1390
1340.9800   10851.3151
1343.0200   10851.0397
1345.0700   10850.5506
1347.1100   10849.9313
1349.1500   10848.2597
1351.1900   10846.1699
1353.2300   10846.4974
1355.2700   10848.5810
1357.3200   10849.2662
1359.3600   10848.9274
1361.4000   10849.3164
1363.4400   10850.2731
1365.4800   10851.0546
1367.5300   10851.1341
1369.5700   10850.9802
1371.6100   10849.5031
1373.6500   10847.3066
1375.6900   10845.6725
1377.7400   10844.7943
1379.7800   10845.8935
1381.8200   10847.7660
1383.8600   10849.2556
1385.9000   10850.3838
1387.9500   10850.7985
1389.9900   10850.8222
1392.0300   10849.9824
1394.0700   10849.2490
1396.1100   10847.9875
1398.1500   10846.0476
1400.2000   10845.3366
1402.2400   10847.1170
1404.2800   10849.6571
1406.3200   10850.8390
1408.3600   10851.2073
1410.4100   10851.6087
1412.4500   10851.2914
1414.4900   10850.9155
1416.5300   10850.4571
1418.5700   10850.7479
1420.6200   10850.9822
1422.6600   10849.4475
1424.7000   10846.1097
1426.7400   10843.6088
1428.7800   10845.2386
1430.8300   10847.0349
1432.8700   10847.7492
1434.9100   10847.4611
1436.9500   10846.6942
1438.9900   10846.6770
1441.0300   10846.3174
1443.0800   10844.7155
1445.1200   10843.2858
1447.1600   10842.8345
1449.2000   10843.3444
1451.2400   10842.5066
1453.2900   10842.1112
1455.3300   10841.8576
1457.3700   10842.4562
1459.4100   10845.1937
1461.4500   10846.2879
1463.5000   10845.6241
1465.5400   10844.6919
1467.5800   10844.2518
1469.6200   10845.1846
1471.6600   10846.1991
1473.7100   10846.7329
1475.7500   10847.2638
1477.7900   10846.9935
1479.8300   10846.5173
1481.8700   10846.7022
1483.9100   10847.0147
1485.9600   10845.6331
1488.0000   10843.4350
1490.0400   10843.7570
1492.0800   10846.3448
1494.1200   10847.9898
1496.1700   10849.0155
1498.2100   10849.0257
1500.2500   10848.8815
1502.2900   10849.0957
1504.3300   10848.9921
1506.3800   10849.1473
1508.4200   10849.3974
1510.4600   10850.1293
1512.5000   10850.5443
1514.5400   10850.5419
1516.5900   10850.2615
1518.6300   10849.9273
1520.6700   10849.4502
1522.7100   10849.3923
1524.7500   10850.0677
1526.7900   10851.4325
1528.8400   10851.4538
1530.8800   10850.9972
1532.9200   10850.8695
1534.9600   10850.1323
1537.0000   10849.9550
1539.0500   10850.7153
1541.0900   10851.7373
1543.1300   10852.4112
1545.1700   10852.6312
1547.2100   10852.9654
