#----------------------------------
# BOTDR
# DSTS: v.07.1
# Fri Oct 22 14:38:15 2021
#
# Channel No  = 0
# Partial   = 0
# Partial Start  = 0.00
# Partial End  = 4118.55
# Fibre Length    [m]   = 4118.55  0.00
# Fiber Delay    [m]   = 118.55
# Connection Point    [m]   = 198.64
# Rpt.period      [us]  = 65
# Pulse width     [ns]  = 40
# Frequency Start [MHz] = 10690.00
# Frequency End:  [MHz] = 10990.00
# Frequency Step: [MHz] = 5.00
# No.Averages:    [-]   = 12000
# Sampling Rate   [-]   = 0 (200.00MSs, spatial step = 0.50m)
# Input Range     [-]   = 2 (1V)
# Pulse Delay     [m]   = 100
# Post Pulse Data [m]   = 0
# Fiber Type      [-]   = CH4 Land
# Fiber  temperature [C] = 27.00
# Fiber  Bril Frequency  [MHz] = 10840.00
# Fiber  Strain Coefficient  [ue/MHz] = 18.9150
# Fiber Temperature Coefficient [C/MHz] = 0.9765
# Fiber Refractive Index = 1.4682
# Fiber Sigma = 0.2000
#
#----------------------------------
8074

-118.5500   10840.0000
-118.0500   10840.0000
-117.5500   10840.0000
-117.0500   10840.0000
-116.5500   10840.0000
-116.0500   10840.0000
-115.5500   10840.0000
-115.0500   10840.0000
-114.5500   10840.0000
-114.0500   10840.0000
-113.5500   10840.0000
-113.0500   10840.0000
-112.5500   10840.0000
-112.0500   10840.0000
-111.5500   10840.0000
-111.0500   10840.0000
-110.5500   10840.0000
-110.0500   10840.0000
-109.5500   10840.0000
-109.0500   10840.0000
-108.5500   10840.0000
-108.0500   10840.0000
-107.5500   10840.0000
-107.0500   10840.0000
-106.5500   10840.0000
-106.0500   10840.0000
-105.5500   10840.0000
-105.0500   10840.0000
-104.5500   10840.0000
-104.0500   10840.0000
-103.5500   10840.0000
-103.0500   10840.0000
-102.5500   10840.0000
-102.0500   10840.0000
-101.5500   10840.0000
-101.0500   10840.0000
-100.5500   10840.0000
-100.0500   10840.0000
-99.5500   10840.0000
-99.0500   10840.0000
-98.5500   10840.0000
-98.0500   10840.0000
-97.5500   10840.0000
-97.0500   10840.0000
-96.5500   10840.0000
-96.0500   10840.0000
-95.5500   10840.0000
-95.0500   10840.0000
-94.5500   10840.0000
-94.0500   10840.0000
-93.5500   10840.0000
-93.0500   10840.0000
-92.5500   10840.0000
-92.0500   10840.0000
-91.5500   10840.0000
-91.0500   10840.0000
-90.5500   10840.0000
-90.0500   10840.0000
-89.5500   10840.0000
-89.0500   10840.0000
-88.5500   10840.0000
-88.0500   10840.0000
-87.5500   10840.0000
-87.0500   10840.0000
-86.5500   10840.0000
-86.0500   10840.0000
-85.5500   10840.0000
-85.0500   10840.0000
-84.5500   10840.0000
-84.0500   10840.0000
-83.5500   10840.0000
-83.0500   10840.0000
-82.5500   10840.0000
-82.0500   10840.0000
-81.5500   10840.0000
-81.0500   10840.0000
-80.5500   10840.0000
-80.0500   10840.0000
-79.5500   10840.0000
-79.0500   10840.0000
-78.5500   10840.0000
-78.0500   10840.0000
-77.5500   10840.0000
-77.0500   10840.0000
-76.5500   10840.0000
-76.0500   10840.0000
-75.5500   10840.0000
-75.0500   10840.0000
-74.5500   10840.0000
-74.0500   10840.0000
-73.5500   10840.0000
-73.0500   10840.0000
-72.5500   10840.0000
-72.0500   10840.0000
-71.5500   10840.0000
-71.0500   10840.0000
-70.5500   10840.0000
-70.0500   10840.0000
-69.5500   10840.0000
-69.0500   10840.0000
-68.5500   10840.0000
-68.0500   10840.0000
-67.5500   10840.0000
-67.0500   10840.0000
-66.5500   10840.0000
-66.0500   10840.0000
-65.5500   10840.0000
-65.0500   10840.0000
-64.5500   10840.0000
-64.0500   10840.0000
-63.5500   10840.0000
-63.0500   10840.0000
-62.5500   10840.0000
-62.0500   10840.0000
-61.5500   10840.0000
-61.0500   10840.0000
-60.5500   10840.0000
-60.0500   10840.0000
-59.5500   10840.0000
-59.0500   10840.0000
-58.5500   10840.0000
-58.0500   10840.0000
-57.5500   10840.0000
-57.0500   10840.0000
-56.5500   10840.0000
-56.0500   10840.0000
-55.5500   10840.0000
-55.0500   10840.0000
-54.5500   10840.0000
-54.0500   10840.0000
-53.5500   10840.0000
-53.0500   10840.0000
-52.5500   10840.0000
-52.0500   10840.0000
-51.5500   10840.0000
-51.0500   10840.0000
-50.5500   10840.0000
-50.0500   10840.0000
-49.5500   10840.0000
-49.0500   10840.0000
-48.5500   10840.0000
-48.0500   10840.0000
-47.5500   10840.0000
-47.0500   10840.0000
-46.5500   10840.0000
-46.0500   10840.0000
-45.5500   10840.0000
-45.0500   10840.0000
-44.5500   10840.0000
-44.0500   10840.0000
-43.5500   10840.0000
-43.0500   10840.0000
-42.5500   10840.0000
-42.0500   10840.0000
-41.5500   10840.0000
-41.0500   10840.0000
-40.5500   10840.0000
-40.0500   10840.0000
-39.5500   10840.0000
-39.0500   10840.0000
-38.5500   10840.0000
-38.0500   10840.0000
-37.5500   10840.0000
-37.0500   10840.0000
-36.5500   10840.0000
-36.0500   10840.0000
-35.5500   10840.0000
-35.0500   10840.0000
-34.5500   10840.0000
-34.0500   10840.0000
-33.5500   10840.0000
-33.0500   10840.0000
-32.5500   10840.0000
-32.0500   10840.0000
-31.5500   10840.0000
-31.0500   10840.0000
-30.5500   10840.0000
-30.0500   10840.0000
-29.5500   10840.0000
-29.0500   10840.0000
-28.5500   10840.0000
-28.0500   10840.0000
-27.5500   10840.0000
-27.0500   10840.0000
-26.5500   10840.0000
-26.0500   10840.0000
-25.5500   10840.0000
-25.0500   10840.0000
-24.5500   10840.0000
-24.0500   10840.0000
-23.5500   10840.0000
-23.0500   10840.0000
-22.5500   10840.0000
-22.0500   10840.0000
-21.5500   10840.0000
-21.0500   10840.0000
-20.5500   10840.0000
-20.0500   10840.0000
-19.5500   10840.0000
-19.0500   10840.0000
-18.5500   10840.0000
-18.0500   10840.0000
-17.5500   10840.0000
-17.0500   10840.0000
-16.5500   10840.0000
-16.0500   10840.0000
-15.5500   10840.0000
-15.0500   10840.0000
-14.5500   10840.0000
-14.0500   10840.0000
-13.5500   10840.0000
-13.0500   10840.0000
-12.5500   10840.0000
-12.0500   10840.0000
-11.5500   10840.0000
-11.0500   10840.0000
-10.5500   10840.0000
-10.0500   10840.0000
-9.5500   10840.0000
-9.0500   10840.0000
-8.5500   10840.0000
-8.0500   10840.0000
-7.5500   10840.0000
-7.0500   10840.0000
-6.5500   10840.0000
-6.0500   10840.0000
-5.5500   10840.0000
-5.0500   10840.0000
-4.5500   10840.0000
-4.0500   10840.0000
-3.5500   10840.0000
-3.0500   10840.0000
-2.5500   10840.0000
-2.0500   10840.0000
-1.5500   10840.0000
-1.0500   10811.2997
-0.5500   10810.8705
-0.0500   10810.4750
0.4600   10809.9907
0.9700   10809.6029
1.4800   10809.1501
1.9900   10808.8948
2.5000   10808.7358
3.0100   10809.0643
3.5200   10810.1882
4.0300   10812.5019
4.5400   10816.9523
5.0500   10821.8869
5.5700   10826.2528
6.0800   10828.5761
6.5900   10830.2248
7.1000   10830.8862
7.6100   10831.4944
8.1200   10831.6907
8.6300   10832.0295
9.1400   10832.1108
9.6500   10832.3885
10.1600   10832.5089
10.6700   10832.8964
11.1800   10833.1105
11.6900   10833.7344
12.2000   10834.1147
12.7100   10834.8778
13.2200   10835.3405
13.7300   10836.1635
14.2400   10836.5859
14.7500   10837.2149
15.2600   10837.4110
15.7700   10837.7058
16.2900   10837.7352
16.8000   10837.8027
17.3100   10837.6834
17.8200   10837.7301
18.3300   10837.6799
18.8400   10837.7770
19.3500   10837.7575
19.8600   10837.8568
20.3700   10837.7833
20.8800   10837.8092
21.3900   10837.6685
21.9000   10837.6141
22.4100   10837.4600
22.9200   10837.3794
23.4300   10837.2549
23.9400   10837.2129
24.4500   10837.1234
24.9600   10837.1359
25.4700   10837.0157
25.9800   10837.0108
26.4900   10836.8616
27.0100   10836.7728
27.5200   10836.6559
28.0300   10836.6995
28.5400   10836.7104
29.0500   10836.8718
29.5600   10837.0037
30.0700   10837.2703
30.5800   10837.4362
31.0900   10837.6258
31.6000   10837.6460
32.1100   10837.7042
32.6200   10837.5075
33.1300   10837.3914
33.6400   10837.2328
34.1500   10837.2227
34.6600   10837.2327
35.1700   10837.4667
35.6800   10837.7028
36.1900   10838.1626
36.7000   10838.4534
37.2100   10838.8610
37.7300   10839.0279
38.2400   10839.2804
38.7500   10839.3610
39.2600   10839.5307
39.7700   10839.5105
40.2800   10839.5607
40.7900   10839.3943
41.3000   10839.2449
41.8100   10838.9906
42.3200   10838.8290
42.8300   10838.6462
43.3400   10838.6504
43.8500   10838.6228
44.3600   10838.7755
44.8700   10838.8533
45.3800   10839.0344
45.8900   10839.1002
46.4000   10839.2035
46.9100   10839.1896
47.4200   10839.2324
47.9300   10839.1636
48.4500   10839.2375
48.9600   10839.1967
49.4700   10839.2749
49.9800   10839.2571
50.4900   10839.3303
51.0000   10839.3128
51.5100   10839.3787
52.0200   10839.3767
52.5300   10839.3951
53.0400   10839.3459
53.5500   10839.3785
54.0600   10839.2848
54.5700   10839.2545
55.0800   10839.1837
55.5900   10839.1852
56.1000   10839.1698
56.6100   10839.2296
57.1200   10839.1861
57.6300   10839.2174
58.1400   10839.1185
58.6500   10839.0687
59.1700   10838.9577
59.6800   10838.9296
60.1900   10838.8781
60.7000   10838.8750
61.2100   10838.8047
61.7200   10838.8863
62.2300   10838.7849
62.7400   10838.8080
63.2500   10838.7580
63.7600   10838.7120
64.2700   10838.5992
64.7800   10838.5820
65.2900   10838.4968
65.8000   10838.4775
66.3100   10838.4302
66.8200   10838.5272
67.3300   10838.5643
67.8400   10838.6853
68.3500   10838.7277
68.8600   10838.8539
69.3700   10838.8766
69.8900   10838.9693
70.4000   10838.9814
70.9100   10839.0503
71.4200   10838.9958
71.9300   10838.9724
72.4400   10838.9158
72.9500   10838.9162
73.4600   10838.8957
73.9700   10838.9549
74.4800   10838.9453
74.9900   10839.0487
75.5000   10839.0423
76.0100   10839.0155
76.5200   10838.9296
77.0300   10838.8541
77.5400   10838.7374
78.0500   10838.6288
78.5600   10838.4287
79.0700   10838.2694
79.5800   10838.0032
80.0900   10837.7719
80.6100   10837.5172
81.1200   10837.2315
81.6300   10836.9547
82.1400   10836.6367
82.6500   10836.2916
83.1600   10835.8259
83.6700   10835.4215
84.1800   10834.8520
84.6900   10834.2564
85.2000   10833.1930
85.7100   10831.6893
86.2200   10809.1493
86.7300   10796.9759
87.2400   10777.4243
87.7500   10761.4844
88.2600   10759.6512
88.7700   10758.7194
89.2800   10757.2641
89.7900   10755.4494
90.3000   10751.6129
90.8100   10747.9422
91.3300   10748.5300
91.8400   10762.3520
92.3500   10804.3977
92.8600   10812.1809
93.3700   10813.9622
93.8800   10815.1380
94.3900   10815.7803
94.9000   10816.2974
95.4100   10816.4768
95.9200   10816.6288
96.4300   10816.5889
96.9400   10816.6572
97.4500   10816.6253
97.9600   10816.7586
98.4700   10816.8051
98.9800   10816.9202
99.4900   10817.0448
100.0000   10817.1762
100.5100   10817.3571
101.0200   10817.5175
101.5300   10817.6995
102.0500   10817.9159
102.5600   10818.1202
103.0700   10818.2367
103.5800   10818.3151
104.0900   10818.2878
104.6000   10818.1288
105.1100   10818.0329
105.6200   10817.7680
106.1300   10817.6686
106.6400   10817.5274
107.1500   10817.4807
107.6600   10817.4446
108.1700   10817.5002
108.6800   10817.5761
109.1900   10817.6955
109.7000   10817.8456
110.2100   10817.9809
110.7200   10818.1305
111.2300   10818.1584
111.7400   10818.2323
112.2500   10818.2842
112.7700   10818.2227
113.2800   10818.1637
113.7900   10818.0522
114.3000   10817.9054
114.8100   10817.7573
115.3200   10817.6857
115.8300   10817.7111
116.3400   10817.8347
116.8500   10817.9918
117.3600   10818.1937
117.8700   10818.3887
118.3800   10818.5208
118.8900   10818.7110
119.4000   10818.8459
119.9100   10819.0222
120.4200   10819.1793
120.9300   10819.3366
121.4400   10819.4222
121.9500   10819.5053
122.4600   10819.4633
122.9700   10819.3785
123.4900   10819.2815
124.0000   10819.1901
124.5100   10819.1475
125.0200   10819.1527
125.5300   10819.1405
126.0400   10819.1863
126.5500   10819.1597
127.0600   10819.1540
127.5700   10819.1273
128.0800   10819.1443
128.5900   10819.2225
129.1000   10819.4010
129.6100   10819.6039
130.1200   10819.9235
130.6300   10820.1460
131.1400   10820.4671
131.6500   10820.6366
132.1600   10820.8586
132.6700   10820.9929
133.1800   10821.2215
133.6900   10821.3139
134.2100   10821.5408
134.7200   10821.5772
135.2300   10821.6851
135.7400   10821.5974
136.2500   10821.5223
136.7600   10821.3800
137.2700   10821.2565
137.7800   10821.0564
138.2900   10821.0047
138.8000   10820.8381
139.3100   10820.8062
139.8200   10820.7480
140.3300   10820.7674
140.8400   10820.7814
141.3500   10820.8936
141.8600   10820.9185
142.3700   10821.1594
142.8800   10821.3177
143.3900   10821.7152
143.9000   10822.0960
144.4100   10822.7251
144.9300   10823.2017
145.4400   10823.7663
145.9500   10824.0567
146.4600   10824.2523
146.9700   10824.1843
147.4800   10824.0696
147.9900   10823.7268
148.5000   10823.4024
149.0100   10822.9857
149.5200   10822.5672
150.0300   10822.1337
150.5400   10821.7230
151.0500   10821.3350
151.5600   10820.9633
152.0700   10820.6524
152.5800   10820.4017
153.0900   10820.2012
153.6000   10820.0868
154.1100   10820.0017
154.6200   10819.9470
155.1300   10819.9433
155.6500   10819.9712
156.1600   10819.9178
156.6700   10819.9256
157.1800   10819.8712
157.6900   10819.8744
158.2000   10819.8851
158.7100   10819.8896
159.2200   10819.9025
159.7300   10819.9469
160.2400   10819.9642
160.7500   10819.9825
161.2600   10819.9976
161.7700   10820.0416
162.2800   10819.9960
162.7900   10820.0024
163.3000   10819.9731
163.8100   10819.9646
164.3200   10819.9343
164.8300   10819.9292
165.3400   10819.8509
165.8500   10819.7334
166.3700   10819.6342
166.8800   10819.5692
167.3900   10819.5681
167.9000   10819.6147
168.4100   10819.7885
168.9200   10820.0207
169.4300   10820.1824
169.9400   10820.4593
170.4500   10820.5595
170.9600   10820.6735
171.4700   10820.6954
171.9800   10820.7128
172.4900   10820.6986
173.0000   10820.7345
173.5100   10820.7412
174.0200   10820.8029
174.5300   10820.8111
175.0400   10820.8537
175.5500   10820.7935
176.0600   10820.8638
176.5700   10820.8456
177.0900   10820.9165
177.6000   10820.9139
178.1100   10820.9125
178.6200   10820.8665
179.1300   10820.7912
179.6400   10820.6974
180.1500   10820.6911
180.6600   10820.6775
181.1700   10820.7443
181.6800   10820.7484
182.1900   10820.7168
182.7000   10820.6866
183.2100   10820.6753
183.7200   10820.6640
184.2300   10820.7560
184.7400   10820.7901
185.2500   10820.9108
185.7600   10820.9571
186.2700   10821.0162
186.7800   10821.0565
187.2900   10821.0592
187.8100   10821.0062
188.3200   10820.9944
188.8300   10820.9250
189.3400   10820.8910
189.8500   10820.8654
190.3600   10820.8685
190.8700   10820.8295
191.3800   10820.8424
191.8900   10820.8536
192.4000   10820.8863
192.9100   10820.9268
193.4200   10820.9974
193.9300   10821.0030
194.4400   10821.0477
194.9500   10821.0018
195.4600   10820.9878
195.9700   10820.9326
196.4800   10820.9219
196.9900   10820.9152
197.5000   10820.9758
198.0100   10821.0357
198.5300   10821.2060
199.0400   10821.3247
199.5500   10821.4415
200.0600   10821.5202
200.5700   10821.6409
201.0800   10821.6050
201.5900   10821.5380
202.1000   10821.4699
202.6100   10821.4133
203.1200   10821.3712
203.6300   10821.3864
204.1400   10821.4144
204.6500   10821.4882
205.1600   10821.5069
205.6700   10821.5736
206.1800   10821.5900
206.6900   10821.6630
207.2000   10821.6692
207.7100   10821.7018
208.2200   10821.6639
208.7300   10821.6236
209.2500   10821.4965
209.7600   10821.4380
210.2700   10821.3377
210.7800   10821.3488
211.2900   10821.3267
211.8000   10821.3608
212.3100   10821.3501
212.8200   10821.4225
213.3300   10821.4493
213.8400   10821.4950
214.3500   10821.4851
214.8600   10821.5309
215.3700   10821.5014
215.8800   10821.4665
216.3900   10821.3502
216.9000   10821.2811
217.4100   10821.1903
217.9200   10821.2010
218.4300   10821.1985
218.9400   10821.2650
219.4500   10821.2836
219.9700   10821.2670
220.4800   10821.1801
220.9900   10821.0549
221.5000   10820.9094
222.0100   10820.7276
222.5200   10820.6322
223.0300   10820.6476
223.5400   10820.6708
224.0500   10820.7832
224.5600   10820.8868
225.0700   10821.0295
225.5800   10821.1266
226.0900   10821.2814
226.6000   10821.3623
227.1100   10821.4588
227.6200   10821.4306
228.1300   10821.4255
228.6400   10821.3654
229.1500   10821.2551
229.6600   10821.1587
230.1700   10821.0194
230.6900   10820.8996
231.2000   10820.7858
231.7100   10820.7231
232.2200   10820.7544
232.7300   10820.7294
233.2400   10820.7918
233.7500   10820.8305
234.2600   10820.9509
234.7700   10820.9797
235.2800   10821.0948
235.7900   10821.0734
236.3000   10821.0412
236.8100   10820.9679
237.3200   10820.8878
237.8300   10820.7344
238.3400   10820.6419
238.8500   10820.4727
239.3600   10820.4153
239.8700   10820.3147
240.3800   10820.3504
240.8900   10820.3357
241.4100   10820.4412
241.9200   10820.4996
242.4300   10820.6596
242.9400   10820.6890
243.4500   10820.7897
243.9600   10820.7530
244.4700   10820.7848
244.9800   10820.6712
245.4900   10820.5369
246.0000   10820.3553
246.5100   10820.1985
247.0200   10820.0498
247.5300   10819.9695
248.0400   10819.9120
248.5500   10819.9329
249.0600   10819.9498
249.5700   10820.0629
250.0800   10820.1031
250.5900   10820.2060
251.1000   10820.2731
251.6100   10820.3953
252.1300   10820.4674
252.6400   10820.5619
253.1500   10820.5895
253.6600   10820.6343
254.1700   10820.5796
254.6800   10820.5267
255.1900   10820.4167
255.7000   10820.3270
256.2100   10820.2319
256.7200   10820.2015
257.2300   10820.1803
257.7400   10820.2362
258.2500   10820.2768
258.7600   10820.3967
259.2700   10820.4671
259.7800   10820.5457
260.2900   10820.5703
260.8000   10820.5599
261.3100   10820.5711
261.8200   10820.6546
262.3300   10820.6951
262.8500   10820.8458
263.3600   10820.8807
263.8700   10820.9628
264.3800   10820.8877
264.8900   10820.9017
265.4000   10820.8167
265.9100   10820.8025
266.4200   10820.8010
266.9300   10820.8889
267.4400   10820.9691
267.9500   10821.1468
268.4600   10821.2527
268.9700   10821.4397
269.4800   10821.4370
269.9900   10821.4777
270.5000   10821.3720
271.0100   10821.2230
271.5200   10821.0477
272.0300   10820.9349
272.5400   10820.8143
273.0500   10820.7868
273.5700   10820.7578
274.0800   10820.7467
274.5900   10820.7312
275.1000   10820.7181
275.6100   10820.6842
276.1200   10820.6956
276.6300   10820.6917
277.1400   10820.7038
277.6500   10820.6920
278.1600   10820.7009
278.6700   10820.6442
279.1800   10820.6776
279.6900   10820.6287
280.2000   10820.7107
280.7100   10820.7641
281.2200   10820.9220
281.7300   10821.0346
282.2400   10821.1735
282.7500   10821.2064
283.2600   10821.2764
283.7700   10821.2070
284.2900   10821.2009
284.8000   10821.1857
285.3100   10821.2475
285.8200   10821.2767
286.3300   10821.3654
286.8400   10821.4216
287.3500   10821.4503
287.8600   10821.4317
288.3700   10821.4084
288.8800   10821.2714
289.3900   10821.1882
289.9000   10821.0022
290.4100   10820.8900
290.9200   10820.7161
291.4300   10820.6183
291.9400   10820.5496
292.4500   10820.5934
292.9600   10820.6251
293.4700   10820.6929
293.9800   10820.7537
294.4900   10820.9254
295.0100   10821.0308
295.5200   10821.1958
296.0300   10821.2508
296.5400   10821.3580
297.0500   10821.3150
297.5600   10821.2440
298.0700   10821.1641
298.5800   10821.0495
299.0900   10821.0374
299.6000   10821.1492
300.1100   10821.2107
300.6200   10821.3851
301.1300   10821.5075
301.6400   10821.6711
302.1500   10821.7824
302.6600   10821.9767
303.1700   10822.0700
303.6800   10822.2314
304.1900   10822.2520
304.7000   10822.3151
305.2100   10822.3190
