#----------------------------------
# BOTDR
# DSTS: v.07.1
# Fri Oct 22 13:57:39 2021
#
# Channel No  = 0
# Partial   = 0
# Partial Start  = 0.00
# Partial End  = 5118.55
# Fibre Length    [m]   = 5118.55  0.00
# Fiber Delay    [m]   = 118.55
# Connection Point    [m]   = 198.64
# Rpt.period      [us]  = 65
# Pulse width     [ns]  = 40
# Frequency Start [MHz] = 10690.00
# Frequency End:  [MHz] = 10990.00
# Frequency Step: [MHz] = 5.00
# No.Averages:    [-]   = 12000
# Sampling Rate   [-]   = 2 (50.00MSs, spatial step = 2.00m)
# Input Range     [-]   = 2 (1V)
# Pulse Delay     [m]   = 100
# Post Pulse Data [m]   = 0
# Fiber Type      [-]   = CH4 Land
# Fiber  temperature [C] = 27.00
# Fiber  Bril Frequency  [MHz] = 10840.00
# Fiber  Strain Coefficient  [ue/MHz] = 18.9150
# Fiber Temperature Coefficient [C/MHz] = 0.9765
# Fiber Refractive Index = 1.4682
# Fiber Sigma = 0.2000
#
#----------------------------------
2509

-118.5500   0.0000
-116.5500   0.0000
-114.5500   0.0000
-112.5500   0.0000
-110.5500   0.0000
-108.5500   0.0000
-106.5500   0.0000
-104.5500   0.0000
-102.5500   0.0000
-100.5500   0.0000
-98.5500   0.0000
-96.5500   0.0000
-94.5500   0.0000
-92.5500   0.0000
-90.5500   0.0000
-88.5500   0.0000
-86.5500   0.0000
-84.5500   0.0000
-82.5500   0.0000
-80.5500   0.0000
-78.5500   0.0000
-76.5500   0.0000
-74.5500   0.0000
-72.5500   0.0000
-70.5500   0.0000
-68.5500   0.0000
-66.5500   0.0000
-64.5500   0.0000
-62.5500   0.0000
-60.5500   0.0000
-58.5500   0.0000
-56.5500   0.0000
-54.5500   0.0000
-52.5500   0.0000
-50.5500   0.0000
-48.5500   0.0000
-46.5500   0.0000
-44.5500   0.0000
-42.5500   0.0000
-40.5500   0.0000
-38.5500   0.0000
-36.5500   0.0000
-34.5500   0.0000
-32.5500   0.0000
-30.5500   0.0000
-28.5500   0.0000
-26.5500   0.0000
-24.5500   0.0000
-22.5500   0.0000
-20.5500   0.0000
-18.5500   0.0000
-16.5500   0.0000
-14.5500   0.0000
-12.5500   0.0000
-10.5500   0.0000
-8.5500   0.0000
-6.5500   0.0000
-4.5500   0.0000
-2.5500   -92.6004
-0.5500   -68.5127
1.4900   86.8680
3.5300   885.6195
5.5800   1643.1909
7.6200   689.7943
9.6600   626.1199
11.7000   624.8981
13.7400   663.4854
15.7900   672.3552
17.8300   674.9165
19.8700   680.4567
21.9100   683.5707
23.9500   684.8914
25.9900   670.6392
28.0400   668.1256
30.0800   679.7482
32.1200   683.9539
34.1600   677.1761
36.2000   676.9042
38.2500   687.6131
40.2900   682.9972
42.3300   666.0612
44.3700   646.9144
46.4100   634.7321
48.4600   623.9110
50.5000   624.7696
52.5400   633.7299
54.5800   635.2161
56.6200   641.5404
58.6700   617.3131
60.7100   576.8168
62.7500   555.8402
64.7900   558.5499
66.8300   588.2460
68.8700   614.1815
70.9200   628.4697
72.9600   627.7469
75.0000   628.9083
77.0400   614.1310
79.0800   607.6578
81.1300   606.2220
83.1700   571.3989
85.2100   15.4083
87.2500   -987.1925
89.2900   -1081.6995
91.3400   -48.2350
93.3800   28.6643
95.4200   34.2387
97.4600   30.1956
99.5000   42.2954
101.5500   53.8182
103.5900   48.4129
105.6300   44.6357
107.6700   44.5250
109.7100   35.7866
111.7500   28.4316
113.8000   41.4920
115.8400   48.2708
117.8800   61.8013
119.9200   73.0658
121.9600   81.5783
124.0100   79.7435
126.0500   86.9204
128.0900   92.7496
130.1300   103.4721
132.1700   115.8728
134.2200   110.9022
136.2600   109.0994
138.3000   123.7499
140.3400   119.8620
142.3800   109.8585
144.4300   155.8808
146.4700   184.8526
148.5100   178.8552
150.5500   169.5438
152.5900   161.2777
154.6300   164.3736
156.6800   146.4025
158.7200   141.1353
160.7600   176.0163
162.8000   197.1952
164.8400   166.3496
166.8900   139.4134
168.9300   157.6502
170.9700   205.3668
173.0100   283.4632
175.0500   336.6978
177.1000   335.1878
179.1400   295.9325
181.1800   246.8127
183.2200   239.2109
185.2600   269.6294
187.3100   290.8968
189.3500   284.6822
191.3900   287.9817
193.4300   287.8078
195.4700   245.3833
197.5100   203.8424
199.5600   208.7665
201.6000   232.5206
203.6400   268.5720
205.6800   264.5651
207.7200   235.2320
209.7700   220.8680
211.8100   221.2171
213.8500   225.5803
215.8900   238.3018
217.9300   238.5327
219.9800   230.3518
222.0200   216.9505
224.0600   213.0143
226.1000   222.5175
228.1400   222.8464
230.1900   208.1071
232.2300   196.5757
234.2700   180.3154
236.3100   169.8625
238.3500   180.5399
240.3900   180.6727
242.4400   169.7841
244.4800   138.6279
246.5200   96.1574
248.5600   79.7939
250.6000   105.3716
252.6500   151.0667
254.6900   165.8768
256.7300   140.0259
258.7700   129.3764
260.8100   133.1463
262.8600   149.8988
264.9000   175.8033
266.9400   190.1016
268.9800   198.2323
271.0200   192.6036
273.0700   209.0374
275.1100   245.0872
277.1500   272.4032
279.1900   283.1258
281.2300   288.2458
283.2700   302.1246
285.3200   302.1444
287.3600   283.8959
289.4000   271.6766
291.4400   273.7014
293.4800   276.7293
295.5300   267.5175
297.5700   264.8802
299.6100   270.7731
301.6500   282.5942
303.6900   298.5586
305.7400   308.0173
307.7800   317.5233
309.8200   321.7075
311.8600   309.4399
313.9000   293.1588
315.9500   273.5477
317.9900   257.7435
320.0300   263.3648
322.0700   269.7923
324.1100   271.1529
326.1500   269.3936
328.2000   268.7111
330.2400   265.4713
332.2800   270.9050
334.3200   280.8441
336.3600   285.8064
338.4100   292.4313
340.4500   299.8748
342.4900   315.9246
344.5300   312.9314
346.5700   303.7787
348.6200   303.2848
350.6600   295.6335
352.7000   299.1829
354.7400   308.3934
356.7800   315.1060
358.8300   320.2116
360.8700   302.7267
362.9100   275.0094
364.9500   265.7420
366.9900   247.4949
369.0300   240.4923
371.0800   247.0326
373.1200   238.8202
375.1600   247.9842
377.2000   245.1021
379.2400   219.9145
381.2900   205.3108
383.3300   205.0316
385.3700   200.3894
387.4100   195.4801
389.4500   197.1591
391.5000   203.3084
393.5400   210.8854
395.5800   210.9680
397.6200   209.6784
399.6600   209.9848
401.7100   218.0000
403.7500   220.3215
405.7900   227.8232
407.8300   236.3540
409.8700   240.8391
411.9100   229.0014
413.9600   217.5080
416.0000   215.4615
418.0400   225.2392
420.0800   217.3546
422.1200   215.4458
424.1700   208.4441
426.2100   210.7093
428.2500   209.7746
430.2900   203.4703
432.3300   193.5137
434.3800   200.9769
436.4200   210.3482
438.4600   209.3371
440.5000   231.4422
442.5400   279.9808
444.5900   314.7644
446.6300   336.5676
448.6700   341.1619
450.7100   343.1986
452.7500   339.8630
454.7900   332.8920
456.8400   332.9303
458.8800   335.9102
460.9200   327.9608
462.9600   316.5463
465.0000   315.2458
467.0500   310.7733
469.0900   272.1600
471.1300   124.7391
473.1700   -26.3408
475.2100   -65.0485
477.2600   -69.5318
479.3000   -85.9763
481.3400   -95.8580
483.3800   -96.4460
485.4200   -94.9046
487.4700   -87.3560
489.5100   -72.9287
491.5500   -85.2394
493.5900   -123.6261
495.6300   -157.5906
497.6700   -181.7794
499.7200   -190.8999
501.7600   -200.6619
503.8000   -219.8450
505.8400   -219.9020
507.8800   -206.0791
509.9300   -190.7998
511.9700   -191.7631
514.0100   -209.4361
516.0500   -210.1316
518.0900   -219.6779
520.1400   -215.6350
522.1800   -211.3393
524.2200   -206.9783
526.2600   -189.4201
528.3000   -198.8999
530.3500   -245.0022
532.3900   -263.0037
534.4300   -269.8108
536.4700   -289.9165
538.5100   -287.1468
540.5500   -267.4678
542.6000   -291.9012
544.6400   -303.9308
546.6800   -307.4121
548.7200   -309.1625
550.7600   -305.9164
552.8100   -266.4248
554.8500   -108.2255
556.8900   63.3955
558.9300   128.5004
560.9700   131.7342
563.0200   98.3767
565.0600   79.4560
567.1000   70.8619
569.1400   76.3168
571.1800   70.7563
573.2300   59.9306
575.2700   60.1761
577.3100   62.2125
579.3500   84.5989
581.3900   132.1888
583.4300   171.1867
585.4800   159.3844
587.5200   141.3901
589.5600   172.2793
591.6000   214.5002
593.6400   195.7500
595.6900   184.6654
597.7300   210.7628
599.7700   225.1388
601.8100   189.5187
603.8500   147.9807
605.9000   132.6714
607.9400   137.9571
609.9800   145.8376
612.0200   137.0135
614.0600   140.5970
616.1100   128.3339
618.1500   74.0188
620.1900   42.1166
622.2300   31.3338
624.2700   50.6540
626.3100   68.7170
628.3600   82.1923
630.4000   111.8381
632.4400   130.9201
634.4800   135.8988
636.5200   126.9947
638.5700   121.5166
640.6100   116.1045
642.6500   128.7768
644.6900   130.7851
646.7300   120.1070
648.7800   93.3619
650.8200   88.0091
652.8600   101.8892
654.9000   98.2388
656.9400   99.2688
658.9900   93.5220
661.0300   90.5794
663.0700   112.3770
665.1100   141.1721
667.1500   149.1291
669.1900   141.1698
671.2400   136.5103
673.2800   135.5645
675.3200   148.9029
677.3600   162.9781
679.4000   157.3185
681.4500   164.3428
683.4900   177.1098
685.5300   185.7530
687.5700   194.6236
689.6100   217.5484
691.6600   237.7176
693.7000   240.7773
695.7400   224.0421
697.7800   193.4928
699.8200   199.0755
701.8700   234.8442
703.9100   274.1341
705.9500   306.0664
707.9900   338.1185
710.0300   358.7268
712.0700   361.3925
714.1200   369.6207
716.1600   370.2627
718.2000   362.5840
720.2400   353.2080
722.2800   351.7282
724.3300   341.2910
726.3700   320.6111
728.4100   283.5457
730.4500   263.0367
732.4900   267.2493
734.5400   279.0702
736.5800   286.6542
738.6200   296.8870
740.6600   300.6383
742.7000   312.9735
744.7500   311.4018
746.7900   304.6413
748.8300   297.5511
750.8700   290.3869
752.9100   291.2976
754.9500   287.5756
757.0000   292.8028
759.0400   285.2677
761.0800   276.7867
763.1200   280.8541
765.1600   288.6249
767.2100   288.7971
769.2500   288.3242
771.2900   294.5182
773.3300   284.7641
775.3700   259.4998
777.4200   242.1382
779.4600   249.3062
781.5000   269.8278
783.5400   277.8171
785.5800   285.0496
787.6300   281.6687
789.6700   266.8590
791.7100   256.7687
793.7500   266.3661
795.7900   264.0992
797.8300   235.3131
799.8800   207.8262
801.9200   222.3668
803.9600   253.1569
806.0000   263.1332
808.0400   271.2565
810.0900   268.5300
812.1300   257.0195
814.1700   252.2676
816.2100   263.4618
818.2500   278.7518
820.3000   273.3868
822.3400   275.4089
824.3800   266.7673
826.4200   260.6482
828.4600   273.1482
830.5100   290.4798
832.5500   288.8762
834.5900   281.2262
836.6300   279.1028
838.6700   263.0147
840.7100   237.2832
842.7600   227.9214
844.8000   248.8475
846.8400   262.9018
848.8800   263.1743
850.9200   251.8815
852.9700   230.7444
855.0100   240.2716
857.0500   257.0522
859.0900   249.2295
861.1300   239.7033
863.1800   235.0724
865.2200   236.5706
867.2600   232.3826
869.3000   229.6151
871.3400   231.9914
873.3900   246.3089
875.4300   266.4852
877.4700   271.5548
879.5100   273.7829
881.5500   275.2608
883.5900   217.9669
885.6400   158.0771
887.6800   131.3520
889.7200   147.1733
891.7600   180.0250
893.8000   208.4304
895.8500   237.8934
897.8900   274.3874
899.9300   277.2441
901.9700   248.8738
904.0100   242.3286
906.0600   262.1723
908.1000   266.9781
910.1400   250.3518
912.1800   199.7278
914.2200   133.5725
916.2700   94.0086
918.3100   97.0821
920.3500   108.5675
922.3900   123.5403
924.4300   123.7818
926.4700   151.5055
928.5200   193.0233
930.5600   164.2099
932.6000   129.6807
934.6400   125.4891
936.6800   122.6416
938.7300   114.8744
940.7700   124.4865
942.8100   135.1583
944.8500   133.3455
946.8900   135.5684
948.9400   144.7009
950.9800   185.9623
953.0200   215.3207
955.0600   187.2368
957.1000   144.6716
959.1500   130.5784
961.1900   119.9138
963.2300   98.7775
965.2700   110.1754
967.3100   189.1139
969.3500   309.4789
971.4000   379.1443
973.4400   393.8155
975.4800   386.0158
977.5200   326.2245
979.5600   240.3174
981.6100   198.4455
983.6500   180.6952
985.6900   158.4226
987.7300   140.4016
989.7700   146.9393
991.8200   163.5811
993.8600   161.2215
995.9000   154.2400
997.9400   147.3965
999.9800   173.6839
1002.0300   169.2035
1004.0700   119.0155
1006.1100   90.9633
1008.1500   72.3482
1010.1900   54.9816
1012.2300   46.1257
1014.2800   41.5254
1016.3200   73.8594
1018.3600   106.7207
1020.4000   138.0596
1022.4400   152.9223
1024.4900   195.0177
1026.5300   215.4013
1028.5700   170.3403
1030.6100   151.9650
1032.6500   149.5242
1034.7000   124.8532
1036.7400   121.2072
1038.7800   146.7872
1040.8200   160.0303
1042.8600   156.1361
1044.9100   160.6785
1046.9500   181.0152
1048.9900   219.8022
1051.0300   216.2405
1053.0700   160.6267
1055.1100   123.3828
1057.1600   78.8675
1059.2000   36.7940
1061.2400   23.3988
1063.2800   19.5798
1065.3200   32.5362
1067.3700   41.9427
1069.4100   66.2666
1071.4500   107.5838
1073.4900   162.0726
1075.5300   179.2810
1077.5800   155.3245
1079.6200   143.9819
1081.6600   131.0273
1083.7000   118.6854
1085.7400   118.2348
1087.7900   142.9904
1089.8300   174.4509
1091.8700   191.1925
1093.9100   200.2201
1095.9500   209.2238
1097.9900   241.1285
1100.0400   232.1766
1102.0800   204.3184
1104.1200   182.2662
1106.1600   157.2669
1108.2000   123.6889
1110.2500   112.1582
1112.2900   138.6834
1114.3300   153.2349
1116.3700   147.7056
1118.4100   147.9490
1120.4600   172.5607
1122.5000   203.3173
1124.5400   156.7920
1126.5800   106.4613
1128.6200   63.7951
1130.6700   38.0763
1132.7100   29.7025
1134.7500   70.8711
1136.7900   134.3044
1138.8300   161.8029
1140.8700   173.2117
1142.9200   196.9301
1144.9600   241.1925
1147.0000   269.2935
1149.0400   227.0903
1151.0800   189.4499
1153.1300   172.7962
1155.1700   155.5892
1157.2100   127.3258
1159.2500   122.0767
1161.2900   160.0309
1163.3400   172.4225
1165.3800   164.2803
1167.4200   164.9499
1169.4600   209.3289
1171.5000   219.4897
1173.5500   182.2055
1175.5900   157.0001
1177.6300   134.3658
1179.6700   116.6696
1181.7100   113.3635
1183.7500   142.5118
1185.8000   160.1903
1187.8400   140.2673
1189.8800   134.0724
1191.9200   159.7741
1193.9600   202.4421
1196.0100   204.8022
1198.0500   167.8204
1200.0900   143.1361
1202.1300   121.8109
1204.1700   95.0787
1206.2200   85.6318
1208.2600   105.3041
1210.3000   109.5321
1212.3400   104.3058
1214.3800   99.7190
1216.4300   112.1373
1218.4700   159.0833
1220.5100   160.4960
1222.5500   118.6785
1224.5900   106.7827
1226.6300   99.5547
1228.6800   89.2505
1230.7200   88.8971
1232.7600   112.8050
1234.8000   131.6144
1236.8400   124.0300
1238.8900   116.8850
1240.9300   128.6304
1242.9700   164.0420
1245.0100   162.8692
1247.0500   131.3323
1249.1000   113.0214
1251.1400   90.8842
1253.1800   74.7539
1255.2200   95.3014
1257.2600   132.5540
1259.3100   143.2393
1261.3500   148.6553
1263.3900   151.5252
1265.4300   174.3974
1267.4700   205.6978
1269.5100   173.7127
1271.5600   128.2576
1273.6000   110.7444
1275.6400   100.1747
1277.6800   73.1136
1279.7200   58.0779
1281.7700   74.6269
1283.8100   92.3398
1285.8500   120.7938
1287.8900   144.5835
1289.9300   161.4993
1291.9800   191.1601
1294.0200   180.0184
1296.0600   146.0208
1298.1000   122.9564
1300.1400   103.4250
1302.1900   85.3006
1304.2300   80.6511
1306.2700   90.5644
1308.3100   107.7268
1310.3500   116.8319
1312.3900   109.8318
1314.4400   122.7608
1316.4800   164.0545
1318.5200   154.5483
1320.5600   138.2116
1322.6000   123.5844
1324.6500   85.1245
1326.6900   37.2549
1328.7300   49.2652
1330.7700   80.3137
1332.8100   98.3750
1334.8600   109.0970
1336.9000   138.8697
1338.9400   190.3069
1340.9800   255.8261
1343.0200   253.1644
1345.0700   173.1031
1347.1100   118.8530
1349.1500   98.0927
1351.1900   80.5970
1353.2300   83.2850
1355.2700   107.0582
1357.3200   166.3023
1359.3600   253.8262
1361.4000   287.8740
1363.4400   289.9943
1365.4800   280.2188
1367.5300   281.5703
1369.5700   285.3139
1371.6100   270.0210
1373.6500   262.2655
1375.6900   257.1059
1377.7400   240.3909
1379.7800   239.5328
1381.8200   240.6510
1383.8600   240.8418
1385.9000   223.9263
1387.9500   193.6567
1389.9900   165.2593
1392.0300   178.9689
1394.0700   201.1469
1396.1100   167.0004
1398.1500   128.2670
1400.2000   102.5171
1402.2400   126.7066
1404.2800   158.5589
1406.3200   182.0419
1408.3600   201.6283
1410.4100   192.0245
1412.4500   154.3046
1414.4900   128.0593
1416.5300   109.6314
1418.5700   148.3380
1420.6200   217.3237
1422.6600   219.3075
1424.7000   127.0931
1426.7400   56.6272
1428.7800   56.5027
1430.8300   83.3423
1432.8700   111.7231
1434.9100   129.7194
1436.9500   142.2321
1438.9900   143.8953
1441.0300   134.4694
1443.0800   114.8240
1445.1200   84.6837
1447.1600   85.0991
1449.2000   98.9230
1451.2400   96.4621
1453.2900   87.1370
1455.3300   82.0011
1457.3700   95.3962
1459.4100   145.5410
1461.4500   143.8883
1463.5000   102.5836
1465.5400   80.7671
1467.5800   72.4985
1469.6200   59.2894
1471.6600   68.9706
1473.7100   105.8547
1475.7500   166.6098
1477.7900   193.6822
1479.8300   205.8726
1481.8700   203.3799
1483.9100   169.1867
1485.9600   167.9624
1488.0000   185.7182
1490.0400   218.8045
1492.0800   236.3704
1494.1200   236.6210
1496.1700   245.7541
1498.2100   241.7141
1500.2500   230.5602
1502.2900   225.1041
1504.3300   243.5535
1506.3800   265.4221
1508.4200   244.4310
1510.4600   204.9264
1512.5000   163.5559
1514.5400   140.9599
1516.5900   180.8090
1518.6300   231.9605
1520.6700   287.7688
1522.7100   321.2228
1524.7500   336.4036
1526.7900   341.6837
1528.8400   340.1126
1530.8800   315.5737
1532.9200   258.4559
1534.9600   191.4564
1537.0000   135.7370
1539.0500   124.6311
1541.0900   114.9963
1543.1300   94.8363
1545.1700   88.6476
1547.2100   112.1296
1549.2600   132.4456
1551.3000   138.0913
1553.3400   149.3534
1555.3800   162.1542
1557.4200   150.3080
1559.4700   153.6012
1561.5100   162.0099
1563.5500   104.7828
1565.5900   25.0938
1567.6300   25.6232
1569.6700   32.4822
1571.7200   11.4993
1573.7600   -22.0942
1575.8000   -28.2664
1577.8400   -11.7115
1579.8800   11.6477
1581.9300   31.4269
1583.9700   49.3803
1586.0100   51.2633
1588.0500   -9.6050
1590.0900   -36.9539
1592.1400   48.2207
1594.1800   96.8866
1596.2200   62.5876
1598.2600   59.2825
1600.3000   65.4340
1602.3500   66.7241
1604.3900   34.6136
1606.4300   -30.0349
1608.4700   -64.7145
1610.5100   -96.1981
1612.5500   -124.0077
1614.6000   -116.8116
1616.6400   -80.5918
1618.6800   -16.5831
1620.7200   43.1435
1622.7600   50.4452
1624.8100   124.2822
1626.8500   187.3310
1628.8900   166.7265
1630.9300   149.9582
1632.9700   138.2264
1635.0200   128.3185
1637.0600   126.2289
1639.1000   119.0090
1641.1400   116.1371
1643.1800   99.4542
1645.2300   64.1764
1647.2700   42.4524
1649.3100   31.8054
1651.3500   27.5461
1653.3900   37.5257
1655.4300   64.4941
1657.4800   93.5518
1659.5200   77.8172
1661.5600   67.4663
1663.6000   127.0468
1665.6400   178.2141
1667.6900   158.1136
1669.7300   142.9164
1671.7700   214.6438
1673.8100   252.6977
1675.8500   122.6473
1677.9000   85.4884
1679.9400   199.7183
1681.9800   284.8435
1684.0200   255.7485
1686.0600   236.0335
1688.1100   261.1213
1690.1500   323.3040
1692.1900   368.7007
1694.2300   385.8415
1696.2700   417.7704
1698.3100   433.9022
1700.3600   481.7685
1702.4000   528.9953
1704.4400   517.3476
1706.4800   496.1878
1708.5200   452.7964
1710.5700   441.8082
1712.6100   483.9767
1714.6500   508.2899
1716.6900   489.4557
1718.7300   440.4910
