#----------------------------------
# BOTDR
# DSTS: v.07.1
# Fri Oct 22 13:41:39 2021
#
# Channel No  = 0
# Partial   = 0
# Partial Start  = 0.00
# Partial End  = 5118.55
# Fibre Length    [m]   = 5118.55  0.00
# Fiber Delay    [m]   = 118.55
# Connection Point    [m]   = 198.64
# Rpt.period      [us]  = 65
# Pulse width     [ns]  = 40
# Frequency Start [MHz] = 10690.00
# Frequency End:  [MHz] = 10990.00
# Frequency Step: [MHz] = 5.00
# No.Averages:    [-]   = 12000
# Sampling Rate   [-]   = 2 (50.00MSs, spatial step = 2.00m)
# Input Range     [-]   = 2 (1V)
# Pulse Delay     [m]   = 100
# Post Pulse Data [m]   = 0
# Fiber Type      [-]   = CH4 Land
# Fiber  temperature [C] = 27.00
# Fiber  Bril Frequency  [MHz] = 10840.00
# Fiber  Strain Coefficient  [ue/MHz] = 18.9150
# Fiber Temperature Coefficient [C/MHz] = 0.9765
# Fiber Refractive Index = 1.4682
# Fiber Sigma = 0.2000
#
#----------------------------------
2509

-118.5500   10840.0000
-116.5500   10840.0000
-114.5500   10840.0000
-112.5500   10840.0000
-110.5500   10840.0000
-108.5500   10840.0000
-106.5500   10840.0000
-104.5500   10840.0000
-102.5500   10840.0000
-100.5500   10840.0000
-98.5500   10840.0000
-96.5500   10840.0000
-94.5500   10840.0000
-92.5500   10840.0000
-90.5500   10840.0000
-88.5500   10840.0000
-86.5500   10840.0000
-84.5500   10840.0000
-82.5500   10840.0000
-80.5500   10840.0000
-78.5500   10840.0000
-76.5500   10840.0000
-74.5500   10840.0000
-72.5500   10840.0000
-70.5500   10840.0000
-68.5500   10840.0000
-66.5500   10840.0000
-64.5500   10840.0000
-62.5500   10840.0000
-60.5500   10840.0000
-58.5500   10840.0000
-56.5500   10840.0000
-54.5500   10840.0000
-52.5500   10840.0000
-50.5500   10840.0000
-48.5500   10840.0000
-46.5500   10840.0000
-44.5500   10840.0000
-42.5500   10840.0000
-40.5500   10840.0000
-38.5500   10840.0000
-36.5500   10840.0000
-34.5500   10840.0000
-32.5500   10840.0000
-30.5500   10840.0000
-28.5500   10840.0000
-26.5500   10840.0000
-24.5500   10840.0000
-22.5500   10840.0000
-20.5500   10840.0000
-18.5500   10840.0000
-16.5500   10840.0000
-14.5500   10840.0000
-12.5500   10840.0000
-10.5500   10840.0000
-8.5500   10840.0000
-6.5500   10840.0000
-4.5500   10840.0000
-2.5500   10812.4495
-0.5500   10811.1249
1.4900   10811.0422
3.5300   10820.0592
5.5800   10830.1324
7.6200   10831.3375
9.6600   10831.8052
11.7000   10833.9295
13.7400   10836.4609
15.7900   10837.2843
17.8300   10837.7074
19.8700   10837.6488
21.9100   10837.3646
23.9500   10837.1561
25.9900   10836.3899
28.0400   10836.0375
30.0800   10836.0030
32.1200   10836.6075
34.1600   10837.4309
36.2000   10838.8712
38.2500   10840.1422
40.2900   10840.1414
42.3300   10839.7893
44.3700   10839.5882
46.4100   10839.4866
48.4600   10839.3943
50.5000   10839.2026
52.5400   10838.9625
54.5800   10838.8674
56.6200   10838.8143
58.6700   10838.1793
60.7100   10837.8746
62.7500   10838.2146
64.7900   10838.3260
66.8300   10838.4415
68.8700   10838.7411
70.9200   10838.7599
72.9600   10838.3759
75.0000   10838.1827
77.0400   10838.4356
79.0800   10838.0181
81.1300   10837.4044
83.1700   10835.8105
85.2100   10807.2736
87.2500   10759.9100
89.2900   10757.8221
91.3400   10803.7427
93.3800   10816.8330
95.4200   10817.4073
97.4600   10817.5739
99.5000   10818.2601
101.5500   10818.5896
103.5900   10818.3470
105.6300   10818.0856
107.6700   10818.4191
109.7100   10818.6521
111.7500   10818.3987
113.8000   10818.1044
115.8400   10818.5446
117.8800   10819.0665
119.9200   10819.7228
121.9600   10819.7269
124.0100   10819.3728
126.0500   10819.6527
128.0900   10820.8205
130.1300   10821.6198
132.1700   10822.2722
134.2200   10822.0455
136.2600   10821.4234
138.3000   10821.2389
140.3400   10821.0715
142.3800   10821.6420
144.4300   10823.9017
146.4700   10825.2564
148.5100   10825.1199
150.5500   10824.2791
152.5900   10822.9684
154.6300   10822.5065
156.6800   10822.4495
158.7200   10821.9923
160.7600   10821.7671
162.8000   10821.6507
164.8400   10821.4625
166.8900   10821.6474
168.9300   10822.4187
170.9700   10822.8691
173.0100   10824.1604
175.0500   10824.5732
177.1000   10824.3647
179.1400   10824.7590
181.1800   10825.1578
183.2200   10824.8683
185.2600   10824.8031
187.3100   10824.5777
189.3500   10824.0644
191.3900   10823.8574
193.4300   10823.9716
195.4700   10824.2659
197.5100   10824.4429
199.5600   10824.3857
201.6000   10824.4649
203.6400   10824.5872
205.6800   10824.4087
207.7200   10824.5820
209.7700   10824.9637
211.8100   10824.8867
213.8500   10825.1703
215.8900   10825.1147
217.9300   10825.3562
219.9800   10824.7377
222.0200   10823.3624
224.0600   10823.4395
226.1000   10823.6885
228.1400   10823.5826
230.1900   10823.3918
232.2300   10823.7751
234.2700   10824.1178
236.3100   10824.3826
238.3500   10825.0680
240.3900   10825.6499
242.4400   10825.2344
244.4800   10824.1710
246.5200   10822.8442
248.5600   10823.4489
250.6000   10823.9574
252.6500   10824.2908
254.6900   10824.3564
256.7300   10823.4302
258.7700   10822.9138
260.8100   10822.9701
262.8600   10823.4373
264.9000   10823.9596
266.9400   10824.1836
268.9800   10824.0336
271.0200   10824.2489
273.0700   10824.3243
275.1100   10824.3540
277.1500   10824.3888
279.1900   10824.7078
281.2300   10824.5603
283.2700   10824.8940
285.3200   10824.7959
287.3600   10824.5730
289.4000   10823.8668
291.4400   10823.4100
293.4800   10824.3112
295.5300   10824.9484
297.5700   10825.1272
299.6100   10825.5185
301.6500   10825.1383
303.6900   10824.7630
305.7400   10825.2327
307.7800   10825.3294
309.8200   10824.9381
311.8600   10823.5037
313.9000   10822.9914
315.9500   10823.9257
317.9900   10825.0339
320.0300   10825.4690
322.0700   10826.0117
324.1100   10826.1561
326.1500   10825.9406
328.2000   10826.1185
330.2400   10826.5715
332.2800   10826.9394
334.3200   10826.7036
336.3600   10826.6791
338.4100   10826.9086
340.4500   10827.2632
342.4900   10827.3976
344.5300   10827.5210
346.5700   10827.4277
348.6200   10826.8642
350.6600   10825.7124
352.7000   10824.7113
354.7400   10825.3045
356.7800   10826.3808
358.8300   10826.7722
360.8700   10826.6669
362.9100   10826.8310
364.9500   10827.0426
366.9900   10826.5991
369.0300   10825.2628
371.0800   10824.6419
373.1200   10824.4883
375.1600   10824.2612
377.2000   10824.4500
379.2400   10825.7234
381.2900   10826.6218
383.3300   10826.0919
385.3700   10825.2171
387.4100   10825.1535
389.4500   10825.3524
391.5000   10825.4805
393.5400   10825.7217
395.5800   10826.3552
397.6200   10826.6945
399.6600   10826.5050
401.7100   10826.5274
403.7500   10826.5567
405.7900   10826.2251
407.8300   10825.5819
409.8700   10825.9237
411.9100   10826.3928
413.9600   10826.5952
416.0000   10826.4207
418.0400   10826.0436
420.0800   10826.2634
422.1200   10826.7201
424.1700   10827.1123
426.2100   10827.5026
428.2500   10827.8584
430.2900   10827.6861
432.3300   10827.5371
434.3800   10827.8250
436.4200   10827.2866
438.4600   10826.7928
440.5000   10826.6659
442.5400   10826.7092
444.5900   10826.3195
446.6300   10825.8858
448.6700   10826.3112
450.7100   10826.4725
452.7500   10826.4670
454.7900   10826.1002
456.8400   10825.6403
458.8800   10825.5508
460.9200   10824.9471
462.9600   10824.7580
465.0000   10825.8827
467.0500   10825.7685
469.0900   10824.7572
471.1300   10825.1087
473.1700   10826.5852
475.2100   10827.4147
477.2600   10827.5063
479.3000   10826.0639
481.3400   10825.1842
483.3800   10826.5308
485.4200   10828.1845
487.4700   10828.4248
489.5100   10828.1539
491.5500   10827.6012
493.5900   10827.5773
495.6300   10828.1101
497.6700   10828.2675
499.7200   10827.6230
501.7600   10825.9388
503.8000   10825.0292
505.8400   10825.2205
507.8800   10826.7258
509.9300   10826.9936
511.9700   10826.3799
514.0100   10826.2054
516.0500   10826.8580
518.0900   10826.8273
520.1400   10826.0254
522.1800   10825.6124
524.2200   10824.8959
526.2600   10823.5187
528.3000   10822.4567
530.3500   10822.4034
532.3900   10821.9838
534.4300   10821.1850
536.4700   10821.2068
538.5100   10821.0739
540.5500   10820.5853
542.6000   10820.3305
544.6400   10820.6593
546.6800   10821.1013
548.7200   10821.2212
550.7600   10821.3771
552.8100   10823.7134
554.8500   10831.4254
556.8900   10840.4375
558.9300   10842.9908
560.9700   10842.6479
563.0200   10841.7986
565.0600   10841.1100
567.1000   10840.7214
569.1400   10841.0148
571.1800   10841.3387
573.2300   10840.7499
575.2700   10840.8185
577.3100   10841.4745
579.3500   10842.4932
581.3900   10843.5332
583.4300   10843.7420
585.4800   10843.7709
587.5200   10843.3490
589.5600   10843.7537
591.6000   10844.3089
593.6400   10844.3530
595.6900   10843.9688
597.7300   10844.8342
599.7700   10845.8471
601.8100   10845.6586
603.8500   10845.3090
605.9000   10845.1228
607.9400   10845.1899
609.9800   10845.4867
612.0200   10845.3905
614.0600   10846.0451
616.1100   10846.5149
618.1500   10846.3136
620.1900   10845.6198
622.2300   10844.6932
624.2700   10844.4652
626.3100   10844.8348
628.3600   10844.6972
630.4000   10844.8718
632.4400   10845.5215
634.4800   10846.3954
636.5200   10846.6415
638.5700   10846.0552
640.6100   10845.6816
642.6500   10845.8594
644.6900   10846.2216
646.7300   10846.0090
648.7800   10845.2635
650.8200   10844.4783
652.8600   10844.1384
654.9000   10844.4095
656.9400   10844.9829
658.9900   10845.8438
661.0300   10846.2454
663.0700   10846.5219
665.1100   10846.5970
667.1500   10846.4032
669.1900   10846.1087
671.2400   10846.5524
673.2800   10846.1620
675.3200   10844.8896
677.3600   10844.0944
679.4000   10844.3923
681.4500   10844.0659
683.4900   10843.9078
685.5300   10844.7230
687.5700   10845.0744
689.6100   10846.6815
691.6600   10848.3596
693.7000   10847.8846
695.7400   10846.1343
697.7800   10844.9279
699.8200   10846.0412
701.8700   10849.3850
703.9100   10851.1771
705.9500   10852.5266
707.9900   10853.2125
710.0300   10853.1558
712.0700   10852.8523
714.1200   10852.7077
716.1600   10852.6078
718.2000   10852.2467
720.2400   10852.1743
722.2800   10852.1345
724.3300   10852.3299
726.3700   10852.2867
728.4100   10851.1635
730.4500   10851.0264
732.4900   10851.8287
734.5400   10852.0588
736.5800   10852.0739
738.6200   10852.2121
740.6600   10852.4185
742.7000   10852.5334
744.7500   10852.3208
746.7900   10852.0689
748.8300   10851.7406
750.8700   10851.4153
752.9100   10851.0833
754.9500   10850.9132
757.0000   10850.8649
759.0400   10849.9015
761.0800   10849.5574
763.1200   10850.3837
765.1600   10851.0069
767.2100   10850.8938
769.2500   10850.9843
771.2900   10851.4167
773.3300   10851.2136
775.3700   10850.9349
777.4200   10850.6047
779.4600   10850.4563
781.5000   10850.7202
783.5400   10850.3758
785.5800   10850.5730
787.6300   10851.1493
789.6700   10850.4827
791.7100   10850.7021
793.7500   10850.6188
795.7900   10849.9886
797.8300   10849.2916
799.8800   10848.1771
801.9200   10848.5192
803.9600   10849.5582
806.0000   10849.5968
808.0400   10849.9958
810.0900   10850.3326
812.1300   10849.9336
814.1700   10849.6689
816.2100   10849.7328
818.2500   10849.7564
820.3000   10849.6728
822.3400   10849.6786
824.3800   10849.7326
826.4200   10849.5052
828.4600   10849.5217
830.5100   10849.0838
832.5500   10848.9059
834.5900   10848.8937
836.6300   10848.6455
838.6700   10848.5826
840.7100   10848.0807
842.7600   10848.0889
844.8000   10848.3900
846.8400   10848.4478
848.8800   10848.1169
850.9200   10847.7938
852.9700   10847.2371
855.0100   10847.2008
857.0500   10847.3682
859.0900   10846.7341
861.1300   10846.4129
863.1800   10846.1753
865.2200   10845.6063
867.2600   10846.0679
869.3000   10847.5050
871.3400   10847.8994
873.3900   10847.7474
875.4300   10848.1432
877.4700   10847.2705
879.5100   10846.8306
881.5500   10847.4873
883.5900   10847.6972
885.6400   10847.3395
887.6800   10847.2371
889.7200   10846.9588
891.7600   10846.9754
893.8000   10846.9615
895.8500   10846.6930
897.8900   10846.6155
899.9300   10846.5724
901.9700   10846.1062
904.0100   10846.1038
906.0600   10846.6991
908.1000   10846.9812
910.1400   10846.3430
912.1800   10845.6181
914.2200   10845.2034
916.2700   10845.0754
918.3100   10845.6555
920.3500   10845.8131
922.3900   10845.5133
924.4300   10845.3018
926.4700   10844.8837
928.5200   10844.6813
930.5600   10844.6873
932.6000   10844.9533
934.6400   10845.4802
936.6800   10844.9211
938.7300   10844.2327
940.7700   10843.9504
942.8100   10844.6722
944.8500   10845.4186
946.8900   10845.5761
948.9400   10845.2024
950.9800   10845.1931
953.0200   10845.3415
955.0600   10845.7054
957.1000   10845.3778
959.1500   10844.8785
961.1900   10844.5112
963.2300   10843.1135
965.2700   10842.9491
967.3100   10845.0840
969.3500   10846.9105
971.4000   10848.2343
973.4400   10847.8594
975.4800   10847.2387
977.5200   10846.8510
979.5600   10846.8934
981.6100   10846.6756
983.6500   10846.1504
985.6900   10845.5602
987.7300   10844.4918
989.7700   10844.3106
991.8200   10845.2735
993.8600   10845.4475
995.9000   10845.0967
997.9400   10843.9875
999.9800   10843.5894
1002.0300   10843.6527
1004.0700   10843.0570
1006.1100   10842.4480
1008.1500   10842.8865
1010.1900   10842.6535
1012.2300   10842.1335
1014.2800   10842.8906
1016.3200   10844.6242
1018.3600   10846.1043
1020.4000   10846.6697
1022.4400   10846.9371
1024.4900   10846.9682
1026.5300   10846.8679
1028.5700   10846.9853
1030.6100   10846.1922
1032.6500   10845.2439
1034.7000   10844.7472
1036.7400   10844.0983
1038.7800   10845.0975
1040.8200   10846.5049
1042.8600   10846.5503
1044.9100   10845.8128
1046.9500   10845.3663
1048.9900   10845.8190
1051.0300   10846.7942
1053.0700   10847.0847
1055.1100   10845.8066
1057.1600   10843.3449
1059.2000   10840.9767
1061.2400   10839.3773
1063.2800   10839.7107
1065.3200   10840.4854
1067.3700   10841.9589
1069.4100   10843.7664
1071.4500   10845.4481
1073.4900   10846.7678
1075.5300   10847.5403
1077.5800   10847.0322
1079.6200   10845.4133
1081.6600   10844.0220
1083.7000   10843.5330
1085.7400   10843.9808
1087.7900   10845.7084
1089.8300   10847.4076
1091.8700   10848.0967
1093.9100   10848.2961
1095.9500   10848.5575
1097.9900   10848.5350
1100.0400   10848.8852
1102.0800   10848.9327
1104.1200   10848.4963
1106.1600   10846.9037
1108.2000   10845.1453
1110.2500   10844.4954
1112.2900   10845.7170
1114.3300   10845.9196
1116.3700   10846.0637
1118.4100   10846.6336
1120.4600   10847.5674
1122.5000   10847.8965
1124.5400   10847.8970
1126.5800   10846.8122
1128.6200   10844.2166
1130.6700   10842.8864
1132.7100   10842.4074
1134.7500   10843.5938
1136.7900   10846.4843
1138.8300   10848.1238
1140.8700   10848.4687
1142.9200   10848.7559
1144.9600   10849.2378
1147.0000   10848.9144
1149.0400   10848.8589
1151.0800   10849.2816
1153.1300   10848.8481
1155.1700   10848.1912
1157.2100   10846.6216
1159.2500   10846.3185
1161.2900   10847.4272
1163.3400   10848.1283
1165.3800   10848.1314
1167.4200   10847.9235
1169.4600   10847.8707
1171.5000   10847.5564
1173.5500   10847.0749
1175.5900   10846.2765
1177.6300   10845.9645
1179.6700   10845.2267
1181.7100   10844.7729
1183.7500   10846.1968
1185.8000   10847.1502
1187.8400   10846.8187
1189.8800   10846.2644
1191.9200   10846.0998
1193.9600   10846.5113
1196.0100   10846.7953
1198.0500   10846.2184
1200.0900   10846.2353
1202.1300   10846.2544
1204.1700   10844.9713
1206.2200   10844.5322
1208.2600   10845.8732
1210.3000   10846.3696
1212.3400   10846.0749
1214.3800   10845.8327
1216.4300   10846.2487
1218.4700   10846.7436
1220.5100   10846.4165
1222.5500   10845.9785
1224.5900   10845.4891
1226.6300   10845.2261
1228.6800   10844.9706
1230.7200   10845.2297
1232.7600   10846.6383
1234.8000   10848.0196
1236.8400   10848.3903
1238.8900   10848.1224
1240.9300   10847.5657
1242.9700   10846.9688
1245.0100   10846.2436
1247.0500   10845.7812
1249.1000   10846.7221
1251.1400   10846.5097
1253.1800   10844.9271
1255.2200   10843.8980
1257.2600   10845.1904
1259.3100   10847.0625
1261.3500   10848.7678
1263.3900   10849.1763
1265.4300   10848.8589
1267.4700   10848.5728
1269.5100   10848.8150
1271.5600   10848.9605
1273.6000   10848.4800
1275.6400   10847.7397
1277.6800   10845.8273
1279.7200   10844.8480
1281.7700   10845.8910
1283.8100   10847.2726
1285.8500   10848.4356
1287.8900   10848.7003
1289.9300   10847.8367
1291.9800   10847.3471
1294.0200   10848.1531
1296.0600   10848.7551
1298.1000   10848.5505
1300.1400   10847.1096
1302.1900   10845.0062
1304.2300   10844.0403
1306.2700   10845.2162
1308.3100   10846.1651
1310.3500   10846.0131
1312.3900   10846.1002
1314.4400   10845.6780
1316.4800   10845.0107
1318.5200   10845.4254
1320.5600   10845.8721
1322.6000   10845.0290
1324.6500   10844.0719
1326.6900   10843.5465
1328.7300   10844.1012
1330.7700   10845.8821
1332.8100   10846.0318
1334.8600   10845.4076
1336.9000   10846.2603
1338.9400   10847.8598
1340.9800   10848.7700
1343.0200   10848.6221
1345.0700   10847.5833
1347.1100   10846.7043
1349.1500   10845.8288
1351.1900   10845.3202
1353.2300   10846.5956
1355.2700   10847.6526
1357.3200   10848.1390
1359.3600   10848.3836
1361.4000   10847.9384
1363.4400   10847.8645
1365.4800   10847.4571
1367.5300   10847.6630
1369.5700   10848.1955
1371.6100   10847.7264
1373.6500   10846.6837
1375.6900   10845.0077
1377.7400   10844.0869
1379.7800   10845.6615
1381.8200   10847.0440
1383.8600   10847.0550
1385.9000   10846.7711
1387.9500   10846.9027
1389.9900   10846.6595
1392.0300   10846.5501
1394.0700   10847.2550
1396.1100   10847.5515
1398.1500   10846.1871
1400.2000   10844.8125
1402.2400   10845.2287
1404.2800   10846.2943
1406.3200   10847.1227
1408.3600   10847.6897
1410.4100   10847.7067
1412.4500   10847.5642
1414.4900   10847.1230
1416.5300   10846.5927
1418.5700   10846.7642
1420.6200   10846.5593
1422.6600   10845.6602
1424.7000   10843.6202
1426.7400   10842.4059
1428.7800   10843.2471
1430.8300   10844.5446
1432.8700   10845.2248
1434.9100   10844.9936
1436.9500   10844.5818
1438.9900   10844.4100
1441.0300   10843.7344
1443.0800   10842.1269
1445.1200   10841.2295
1447.1600   10840.6690
1449.2000   10840.3712
1451.2400   10840.2756
1453.2900   10840.1974
1455.3300   10840.6473
1457.3700   10841.4215
1459.4100   10843.2371
1461.4500   10843.9405
1463.5000   10843.6369
1465.5400   10843.0974
1467.5800   10842.6193
1469.6200   10843.2152
1471.6600   10844.7869
1473.7100   10845.6673
1475.7500   10846.3542
1477.7900   10845.6513
1479.8300   10844.4283
1481.8700   10844.0138
1483.9100   10844.0833
1485.9600   10844.3220
1488.0000   10844.7433
1490.0400   10845.1545
1492.0800   10845.7861
1494.1200   10846.1041
1496.1700   10847.1093
1498.2100   10847.6543
1500.2500   10847.6178
1502.2900   10847.7756
1504.3300   10846.4825
1506.3800   10846.4664
1508.4200   10847.1553
1510.4600   10847.5606
1512.5000   10847.4531
1514.5400   10847.1370
1516.5900   10846.1323
1518.6300   10845.0983
1520.6700   10845.7053
1522.7100   10845.9821
1524.7500   10844.8254
1526.7900   10845.1767
1528.8400   10846.1125
1530.8800   10846.3613
1532.9200   10846.3734
1534.9600   10845.8278
1537.0000   10845.9212
1539.0500   10846.0254
1541.0900   10846.4760
1543.1300   10847.0223
1545.1700   10846.8829
1547.2100   10846.6332
