#----------------------------------
# BOTDR
# DSTS: v.07.1
# Fri Oct 22 14:14:59 2021
#
# Channel No  = 0
# Partial   = 0
# Partial Start  = 0.00
# Partial End  = 3111.40
# Fibre Length    [m]   = 3111.40  0.00
# Fiber Delay    [m]   = 111.40
# Connection Point    [m]   = 191.49
# Rpt.period      [us]  = 65
# Pulse width     [ns]  = 10
# Frequency Start [MHz] = 10690.00
# Frequency End:  [MHz] = 10990.00
# Frequency Step: [MHz] = 5.00
# No.Averages:    [-]   = 12000
# Sampling Rate   [-]   = 0 (200.00MSs, spatial step = 0.50m)
# Input Range     [-]   = 2 (1V)
# Pulse Delay     [m]   = 100
# Post Pulse Data [m]   = 0
# Fiber Type      [-]   = CH4 Land
# Fiber  temperature [C] = 27.00
# Fiber  Bril Frequency  [MHz] = 10840.00
# Fiber  Strain Coefficient  [ue/MHz] = 18.9150
# Fiber Temperature Coefficient [C/MHz] = 0.9765
# Fiber Refractive Index = 1.4682
# Fiber Sigma = 0.2000
#
#----------------------------------
6101

-111.4000   0.0000
-110.9000   0.0000
-110.4000   0.0000
-109.9000   0.0000
-109.4000   0.0000
-108.9000   0.0000
-108.4000   0.0000
-107.9000   0.0000
-107.4000   0.0000
-106.9000   0.0000
-106.4000   0.0000
-105.9000   0.0000
-105.4000   0.0000
-104.9000   0.0000
-104.4000   0.0000
-103.9000   0.0000
-103.4000   0.0000
-102.9000   0.0000
-102.4000   0.0000
-101.9000   0.0000
-101.4000   0.0000
-100.9000   0.0000
-100.4000   0.0000
-99.9000   0.0000
-99.4000   0.0000
-98.9000   0.0000
-98.4000   0.0000
-97.9000   0.0000
-97.4000   0.0000
-96.9000   0.0000
-96.4000   0.0000
-95.9000   0.0000
-95.4000   0.0000
-94.9000   0.0000
-94.4000   0.0000
-93.9000   0.0000
-93.4000   0.0000
-92.9000   0.0000
-92.4000   0.0000
-91.9000   0.0000
-91.4000   0.0000
-90.9000   0.0000
-90.4000   0.0000
-89.9000   0.0000
-89.4000   0.0000
-88.9000   0.0000
-88.4000   0.0000
-87.9000   0.0000
-87.4000   0.0000
-86.9000   0.0000
-86.4000   0.0000
-85.9000   0.0000
-85.4000   0.0000
-84.9000   0.0000
-84.4000   0.0000
-83.9000   0.0000
-83.4000   0.0000
-82.9000   0.0000
-82.4000   0.0000
-81.9000   0.0000
-81.4000   0.0000
-80.9000   0.0000
-80.4000   0.0000
-79.9000   0.0000
-79.4000   0.0000
-78.9000   0.0000
-78.4000   0.0000
-77.9000   0.0000
-77.4000   0.0000
-76.9000   0.0000
-76.4000   0.0000
-75.9000   0.0000
-75.4000   0.0000
-74.9000   0.0000
-74.4000   0.0000
-73.9000   0.0000
-73.4000   0.0000
-72.9000   0.0000
-72.4000   0.0000
-71.9000   0.0000
-71.4000   0.0000
-70.9000   0.0000
-70.4000   0.0000
-69.9000   0.0000
-69.4000   0.0000
-68.9000   0.0000
-68.4000   0.0000
-67.9000   0.0000
-67.4000   0.0000
-66.9000   0.0000
-66.4000   0.0000
-65.9000   0.0000
-65.4000   0.0000
-64.9000   0.0000
-64.4000   0.0000
-63.9000   0.0000
-63.4000   0.0000
-62.9000   0.0000
-62.4000   0.0000
-61.9000   0.0000
-61.4000   0.0000
-60.9000   0.0000
-60.4000   0.0000
-59.9000   0.0000
-59.4000   0.0000
-58.9000   0.0000
-58.4000   0.0000
-57.9000   0.0000
-57.4000   0.0000
-56.9000   0.0000
-56.4000   0.0000
-55.9000   0.0000
-55.4000   0.0000
-54.9000   0.0000
-54.4000   0.0000
-53.9000   0.0000
-53.4000   0.0000
-52.9000   0.0000
-52.4000   0.0000
-51.9000   0.0000
-51.4000   0.0000
-50.9000   0.0000
-50.4000   0.0000
-49.9000   0.0000
-49.4000   0.0000
-48.9000   0.0000
-48.4000   0.0000
-47.9000   0.0000
-47.4000   0.0000
-46.9000   0.0000
-46.4000   0.0000
-45.9000   0.0000
-45.4000   0.0000
-44.9000   0.0000
-44.4000   0.0000
-43.9000   0.0000
-43.4000   0.0000
-42.9000   0.0000
-42.4000   0.0000
-41.9000   0.0000
-41.4000   0.0000
-40.9000   0.0000
-40.4000   0.0000
-39.9000   0.0000
-39.4000   0.0000
-38.9000   0.0000
-38.4000   0.0000
-37.9000   0.0000
-37.4000   0.0000
-36.9000   0.0000
-36.4000   0.0000
-35.9000   0.0000
-35.4000   0.0000
-34.9000   0.0000
-34.4000   0.0000
-33.9000   0.0000
-33.4000   0.0000
-32.9000   0.0000
-32.4000   0.0000
-31.9000   0.0000
-31.4000   0.0000
-30.9000   0.0000
-30.4000   0.0000
-29.9000   0.0000
-29.4000   0.0000
-28.9000   0.0000
-28.4000   0.0000
-27.9000   0.0000
-27.4000   0.0000
-26.9000   0.0000
-26.4000   0.0000
-25.9000   0.0000
-25.4000   0.0000
-24.9000   0.0000
-24.4000   0.0000
-23.9000   0.0000
-23.4000   0.0000
-22.9000   0.0000
-22.4000   0.0000
-21.9000   0.0000
-21.4000   0.0000
-20.9000   0.0000
-20.4000   0.0000
-19.9000   0.0000
-19.4000   0.0000
-18.9000   0.0000
-18.4000   0.0000
-17.9000   0.0000
-17.4000   0.0000
-16.9000   0.0000
-16.4000   0.0000
-15.9000   0.0000
-15.4000   0.0000
-14.9000   0.0000
-14.4000   0.0000
-13.9000   0.0000
-13.4000   0.0000
-12.9000   0.0000
-12.4000   0.0000
-11.9000   0.0000
-11.4000   0.0000
-10.9000   0.0000
-10.4000   0.0000
-9.9000   0.0000
-9.4000   0.0000
-8.9000   0.0000
-8.4000   0.0000
-7.9000   0.0000
-7.4000   0.0000
-6.9000   0.0000
-6.4000   0.0000
-5.9000   0.0000
-5.4000   0.0000
-4.9000   0.0000
-4.4000   0.0000
-3.9000   0.0000
-3.4000   0.0000
-2.9000   0.0000
-2.4000   0.0000
-1.9000   0.0000
-1.4000   -81.0078
-0.9000   -226.4778
-0.4000   -173.0354
0.1000   -163.6934
0.6100   -71.6542
1.1200   -4.1318
1.6300   97.0496
2.1400   24.2048
2.6500   48.3943
3.1600   64.5992
3.6700   -4.5678
4.1800   99.0154
4.6900   -65.7866
5.2000   50.2094
5.7200   -4.7936
6.2300   25.1668
6.7400   101.4558
7.2500   23.4887
7.7600   21.1978
8.2700   12.3557
8.7800   -11.5369
9.2900   59.6591
9.8000   -6.4303
10.3100   12.4370
10.8200   68.0857
11.3300   -37.1591
11.8400   -120.3164
12.3500   -45.0853
12.8600   -56.1635
13.3700   -52.0907
13.8800   -25.0295
14.3900   -84.8577
14.9000   -98.1735
15.4100   -130.8538
15.9200   -139.2724
16.4400   66.4870
16.9500   65.1007
17.4600   53.8660
17.9700   18.3493
18.4800   56.3447
18.9900   27.9397
19.5000   35.9575
20.0100   80.4638
20.5200   114.4079
21.0300   94.4371
21.5400   23.1811
22.0500   15.0329
22.5600   -59.2315
23.0700   -71.2596
23.5800   40.1852
24.0900   50.5515
24.6000   -17.5877
25.1100   -51.7160
25.6200   -108.6768
26.1300   -22.9756
26.6400   -17.7028
27.1600   2.0962
27.6700   -22.2809
28.1800   72.2774
28.6900   106.4250
29.2000   42.0404
29.7100   4.0420
30.2200   -73.8765
30.7300   -59.8909
31.2400   -56.2871
31.7500   38.9728
32.2600   25.0285
32.7700   -0.6991
33.2800   -17.6698
33.7900   -87.7023
34.3000   -35.9913
34.8100   45.0505
35.3200   9.8087
35.8300   20.6147
36.3400   -45.8142
36.8500   21.5870
37.3600   10.5305
37.8800   -31.5935
38.3900   -82.4097
38.9000   2.5712
39.4100   -52.1448
39.9200   51.1312
40.4300   -22.5702
40.9400   -44.6105
41.4500   -1.5933
41.9600   -25.4187
42.4700   -31.0068
42.9800   51.6830
43.4900   -11.2795
44.0000   -22.6903
44.5100   -82.4780
45.0200   19.2462
45.5300   0.3322
46.0400   22.0042
46.5500   -18.8741
47.0600   66.0469
47.5700   -27.5216
48.0800   -19.0610
48.6000   -5.8901
49.1100   -23.1129
49.6200   44.2571
50.1300   76.7495
50.6400   -5.1627
51.1500   -63.0436
51.6600   -30.2800
52.1700   17.2213
52.6800   -10.4525
53.1900   -13.0601
53.7000   -121.6779
54.2100   13.7984
54.7200   -57.1382
55.2300   -60.3078
55.7400   -133.6034
56.2500   -11.9596
56.7600   -119.0033
57.2700   -19.4961
57.7800   92.8188
58.2900   -6.2000
58.8000   -43.3138
59.3200   44.1286
59.8300   -39.5680
60.3400   -35.4835
60.8500   -29.7580
61.3600   -12.0352
61.8700   -52.0538
62.3800   -24.0807
62.8900   -35.7559
63.4000   -49.3594
63.9100   -5.7054
64.4200   52.1143
64.9300   48.4716
65.4400   49.1623
65.9500   16.7632
66.4600   98.3787
66.9700   99.2079
67.4800   93.0025
67.9900   17.6731
68.5000   0.3400
69.0100   -57.6133
69.5200   -42.0884
70.0400   -16.1773
70.5500   -64.1816
71.0600   -91.1095
71.5700   -5.0815
72.0800   -104.6192
72.5900   1.7873
73.1000   69.8811
73.6100   7.2776
74.1200   -86.2644
74.6300   -49.7211
75.1400   25.8523
75.6500   7.4271
76.1600   -7.7877
76.6700   -20.2059
77.1800   -105.6872
77.6900   -66.4304
78.2000   -38.0717
78.7100   35.7616
79.2200   39.5277
79.7300   69.6068
80.2400   -11.5066
80.7600   -53.8821
81.2700   -116.4425
81.7800   -45.7368
82.2900   -54.1884
82.8000   57.2543
83.3100   1.5226
83.8200   -45.1951
84.3300   -1.5702
84.8400   15.0017
85.3500   23.8643
85.8600   105.7255
86.3700   196.1872
86.8800   81.0641
87.3900   -19.3933
87.9000   20.2965
88.4100   -25.1435
88.9200   -35.4902
89.4300   55.1661
89.9400   73.6548
90.4500   189.1500
90.9600   -344.1602
91.4800   -283.7250
91.9900   -189.1500
92.5000   -144.9764
93.0100   -50.4320
93.5200   76.3773
94.0300   72.9621
94.5400   -10.3863
95.0500   27.1489
95.5600   -64.7478
96.0700   39.5513
96.5800   96.9480
97.0900   122.8512
97.6000   100.1229
98.1100   59.1354
98.6200   -0.6215
99.1300   -148.0889
99.6400   -76.4373
100.1500   -109.1864
100.6600   -1132.2261
101.1700   -84.2142
101.6800   -120.9378
102.2000   -141.8396
102.7100   -57.0410
103.2200   -123.0298
103.7300   -195.8501
104.2400   -21.0463
104.7500   -7.2939
105.2600   -13.7820
105.7700   77.7934
106.2800   -40.2822
106.7900   153.5552
107.3000   106.2848
107.8100   27.7254
108.3200   15.9813
108.8300   -105.8205
109.3400   -133.3729
109.8500   27.5636
110.3600   -100.2932
110.8700   -98.1178
111.3800   -140.5299
111.8900   7.7340
112.4000   115.0121
112.9200   -30.8261
113.4300   -3.2877
113.9400   95.7912
114.4500   110.4950
114.9600   57.0522
115.4700   -1096.4412
115.9800   -84.0813
116.4900   -1086.7089
117.0000   45.6687
117.5100   14.3210
118.0200   24.1645
118.5300   -29.5808
119.0400   81.7802
119.5500   16.4836
120.0600   -152.6103
120.5700   -15.2386
121.0800   39.1727
121.5900   -35.0665
122.1000   4.7259
122.6100   -46.1890
123.1200   -195.4275
123.6400   -102.3312
124.1500   -107.5211
124.6600   -96.7045
125.1700   -86.2475
125.6800   -106.9002
126.1900   -103.3779
126.7000   39.9287
127.2100   10.4009
127.7200   153.2586
128.2300   170.2493
128.7400   88.1764
129.2500   24.9789
129.7600   165.0842
130.2700   165.4980
130.7800   78.5554
131.2900   114.1244
131.8000   -36.1707
132.3100   -21.2874
132.8200   13.5061
133.3300   -91.5378
133.8400   13.2051
134.3600   -32.6151
134.8700   -5.2984
135.3800   -3.2723
135.8900   -61.6030
136.4000   -29.8619
136.9100   108.9438
137.4200   212.1673
137.9300   164.3708
138.4400   73.3528
138.9500   -51.8639
139.4600   31.5970
139.9700   130.9956
140.4800   83.9435
140.9900   42.1190
141.5000   -93.2565
142.0100   23.6841
142.5200   -7.0283
143.0300   79.0171
143.5400   45.3216
144.0500   37.8888
144.5600   -3.8738
145.0800   -138.1148
145.5900   -176.9742
146.1000   -208.6740
146.6100   -70.8225
147.1200   50.9277
147.6300   -8.9769
148.1400   -61.2985
148.6500   43.4344
149.1600   70.4019
149.6700   -47.5358
150.1800   -12.4645
150.6900   20.7641
151.2000   39.9992
151.7100   -1140.0905
152.2200   -114.9186
152.7300   -185.4306
153.2400   -21.3747
153.7500   -100.4078
154.2600   -16.2474
154.7700   -138.1110
155.2800   53.5986
155.8000   66.3436
156.3100   37.9839
156.8200   29.8342
157.3300   16.0155
157.8400   -13.4299
158.3500   139.8856
158.8600   148.7422
159.3700   79.3338
159.8800   -95.7851
160.3900   34.2572
160.9000   1.5289
161.4100   -84.9578
161.9200   -45.1876
162.4300   -51.0380
162.9400   -110.8215
163.4500   -5.6869
163.9600   -57.9272
164.4700   33.3577
164.9800   13.1475
165.4900   -15.8073
166.0000   -143.0356
166.5200   -93.6321
167.0300   109.7578
167.5400   17.7872
168.0500   -244.2455
168.5600   -169.8640
169.0700   -145.7539
169.5800   -33.7058
170.0900   -136.4838
170.6000   -251.2680
171.1100   -109.0393
171.6200   -58.3500
172.1300   -157.8696
172.6400   -3.0036
173.1500   -25.5960
173.6600   -100.8584
174.1700   -146.6115
174.6800   -7.5224
175.1900   -115.2479
175.7000   -89.7069
176.2100   38.7992
176.7200   39.4989
177.2400   22.0433
177.7500   85.9629
178.2600   30.2754
178.7700   47.2543
179.2800   -142.5278
179.7900   0.9543
180.3000   -77.8522
180.8100   -84.9728
181.3200   -225.3477
181.8300   -201.1164
182.3400   -96.8838
182.8500   -19.7932
183.3600   -104.1198
183.8700   -46.5551
184.3800   33.7318
184.8900   -33.5202
185.4000   22.1355
185.9100   45.4231
186.4200   -46.4013
186.9300   34.2983
187.4400   2.1290
187.9600   58.3386
188.4700   -78.4141
188.9800   -96.9479
189.4900   -63.9724
190.0000   -18.6413
190.5100   -64.6015
191.0200   114.2550
191.5300   -957.9855
192.0400   7.4509
192.5500   -18.9693
193.0600   44.9271
193.5700   28.9467
194.0800   -28.1675
194.5900   49.8107
195.1000   49.8522
195.6100   70.1363
196.1200   97.8413
196.6300   147.5298
197.1400   142.1563
197.6500   -25.9107
198.1600   -120.2620
198.6800   -1.9062
199.1900   28.0444
199.7000   -84.2471
200.2100   17.7696
200.7200   48.1747
201.2300   68.1149
201.7400   56.8959
202.2500   89.9429
202.7600   48.1353
203.2700   120.4255
203.7800   71.2389
204.2900   65.9454
204.8000   -80.8531
205.3100   -56.2023
205.8200   42.6975
206.3300   72.2937
206.8400   47.7031
207.3500   -22.9970
207.8600   -59.0439
208.3700   -23.9370
208.8800   -36.1056
209.4000   9.5859
209.9100   -94.6317
210.4200   -12.7430
210.9300   32.9252
211.4400   20.5820
211.9500   -155.2728
212.4600   -111.6285
212.9700   -41.4138
213.4800   -48.1074
213.9900   -117.4260
214.5000   -53.0456
215.0100   -36.0755
215.5200   -62.8138
216.0300   21.2196
216.5400   34.0061
217.0500   -61.4020
217.5600   -45.6825
218.0700   70.2610
218.5800   4.7308
219.0900   -48.3237
219.6000   16.9200
220.1200   58.2306
220.6300   -32.6885
221.1400   -69.2999
221.6500   -98.8443
222.1600   -60.9400
222.6700   -46.0222
223.1800   21.3596
223.6900   -21.1574
224.2000   -149.5665
224.7100   -88.5864
225.2200   -964.3217
225.7300   -40.3385
226.2400   27.8782
226.7500   39.6520
227.2600   47.9834
227.7700   -54.0872
228.2800   -925.8606
228.7900   57.2599
229.3000   232.5345
229.8100   -8.3032
230.3200   -65.2916
230.8400   -4.0394
231.3500   69.7731
231.8600   162.2181
232.3700   104.3455
232.8800   90.7537
233.3900   135.0296
233.9000   26.0135
234.4100   80.8821
234.9200   -40.9281
235.4300   -143.8386
235.9400   -72.3581
236.4500   -48.7590
236.9600   103.5876
237.4700   103.3016
237.9800   118.0281
238.4900   -65.6082
239.0000   -164.6374
239.5100   -128.0535
240.0200   -93.2946
240.5300   58.5630
241.0400   85.6973
241.5600   -49.3029
242.0700   -26.0687
242.5800   -105.5580
243.0900   -83.4797
243.6000   -83.2947
244.1100   3.1957
244.6200   -45.8495
245.1300   -47.0981
245.6400   -112.4792
246.1500   -44.2965
246.6600   -27.4171
247.1700   -415.4237
247.6800   128.8125
248.1900   40.6006
248.7000   -70.9988
249.2100   -37.5024
249.7200   -91.3699
250.2300   -76.0102
250.7400   44.3010
251.2500   109.7547
251.7600   83.6830
252.2800   37.5948
252.7900   82.6812
253.3000   198.5135
253.8100   100.9012
254.3200   -43.5747
254.8300   -75.3796
255.3400   -84.4915
255.8500   -129.9531
256.3600   -119.6448
256.8700   -77.5843
257.3800   -33.0680
257.8900   38.1256
258.4000   84.6889
258.9100   36.4353
259.4200   65.7334
259.9300   55.7646
260.4400   113.3884
260.9500   19.1164
261.4600   -106.8149
261.9700   -32.9396
262.4800   -47.3698
263.0000   14.3779
263.5100   -1087.1143
264.0200   166.9740
264.5300   69.9528
265.0400   -29.1840
265.5500   15.3135
266.0600   -109.5324
266.5700   -127.1833
267.0800   -177.0553
267.5900   -118.6230
268.1000   -138.0688
268.6100   -74.8496
269.1200   -8.7032
269.6300   -9.4479
270.1400   -73.7062
270.6500   -84.5273
271.1600   -140.5504
271.6700   -1189.1695
272.1800   -20.3181
272.6900   0.8610
273.2000   -70.0954
273.7200   -71.4856
274.2300   21.2091
274.7400   -12.2340
275.2500   101.0128
275.7600   95.0731
276.2700   22.8886
276.7800   -10.1292
277.2900   27.1213
277.8000   -47.2813
278.3100   -53.2811
278.8200   -20.3728
279.3300   -77.0848
279.8400   90.2391
280.3500   2.2541
280.8600   -44.4336
281.3700   -13.2008
281.8800   -14.2017
282.3900   -133.1432
282.9000   -146.2673
283.4100   -227.1974
283.9200   -236.5754
284.4400   -269.1432
284.9500   -134.5092
285.4600   -160.3408
285.9700   -32.3146
286.4800   685.6591
286.9900   -110.9869
287.5000   -64.6773
288.0100   -70.7612
288.5200   -252.0637
289.0300   -112.4910
289.5400   -82.9254
290.0500   -99.3078
290.5600   24.9108
291.0700   33.3337
291.5800   -10.3037
292.0900   -56.7509
292.6000   -89.2658
293.1100   -63.4520
293.6200   -132.8507
294.1300   -898.8237
294.6400   32.7110
295.1600   86.5700
295.6700   65.2360
296.1800   -3.1955
296.6900   -87.9651
297.2000   -21.9439
297.7100   -90.6564
298.2200   3.7232
298.7300   -13.0512
299.2400   -108.3937
299.7500   -69.3964
300.2600   67.8818
300.7700   -3.2847
301.2800   78.6970
301.7900   82.7392
302.3000   13.8622
302.8100   79.9908
303.3200   126.1432
303.8300   11.0175
304.3400   61.9450
304.8500   11.4215
305.3600   36.0141
305.8800   47.4526
306.3900   -17.5192
306.9000   -77.1185
307.4100   -57.9599
307.9200   -90.4859
308.4300   -171.2650
308.9400   -18.5118
309.4500   80.3292
309.9600   18.6442
310.4700   -49.1176
310.9800   -118.1636
311.4900   48.6994
312.0000   -25.6941
312.5100   -6.7320
313.0200   -80.5886
313.5300   -29.2601
314.0400   27.9437
314.5500   76.6841
315.0600   20.6206
315.5700   102.4877
316.0800   98.0090
316.6000   60.9363
317.1100   26.2447
317.6200   17.0605
318.1300   39.4920
318.6400   60.6010
319.1500   63.5983
319.6600   46.5867
320.1700   85.7316
320.6800   123.1037
321.1900   -11.6831
321.7000   -14.5503
322.2100   -38.5095
322.7200   158.6670
323.2300   -790.3274
323.7400   -806.3519
324.2500   162.5021
324.7600   120.4329
325.2700   45.2233
325.7800   52.1962
326.2900   -5.1149
326.8000   -51.4575
327.3200   -59.0315
327.8300   -21.2501
328.3400   96.2051
328.8500   92.5052
329.3600   38.9562
329.8700   77.0113
330.3800   -69.0775
330.8900   -100.1158
331.4000   -60.6856
331.9100   -15.8872
332.4200   -46.9874
332.9300   -32.5916
333.4400   7.5299
333.9500   -20.8835
334.4600   -11.3228
334.9700   23.0864
335.4800   -28.9643
335.9900   -12.9539
336.5000   -3.3662
337.0100   -44.2155
337.5200   14.8689
338.0400   -91.9657
338.5500   -42.1635
339.0600   61.3493
339.5700   106.4760
340.0800   114.0380
340.5900   65.3731
341.1000   34.6506
341.6100   -11.7173
342.1200   -69.2685
342.6300   13.3765
343.1400   52.4817
343.6500   -83.0797
344.1600   -52.3343
344.6700   3.3175
345.1800   42.9994
345.6900   65.0491
346.2000   120.6543
346.7100   59.3663
347.2200   25.3811
347.7300   -62.4614
348.2400   -98.2408
348.7600   -114.1447
349.2700   -134.5069
349.7800   -124.3641
350.2900   -117.3943
350.8000   -16.9979
351.3100   73.0511
351.8200   -7.6861
352.3300   -127.7370
352.8400   -27.3078
353.3500   8.1489
353.8600   90.1485
354.3700   -7.8133
354.8800   14.9445
355.3900   -45.1792
355.9000   502.4912
356.4100   -122.4496
356.9200   -78.8427
357.4300   -29.4807
357.9400   -0.7616
358.4500   51.6318
358.9600   -79.3294
359.4800   -55.9106
359.9900   49.4973
360.5000   12.2612
361.0100   50.8852
361.5200   22.5079
362.0300   52.6594
362.5400   75.4231
363.0500   -69.9952
363.5600   -68.1588
364.0700   -108.5563
364.5800   -94.9289
365.0900   -113.6250
365.6000   -22.4159
366.1100   -48.8865
366.6200   -34.1269
367.1300   -48.3112
367.6400   -132.2513
368.1500   78.6612
368.6600   81.8838
369.1700   -74.9845
