#----------------------------------
# BOTDR
# DSTS: v.07.1
# Fri Oct 22 14:17:40 2021
#
# Channel No  = 0
# Partial   = 0
# Partial Start  = 0.00
# Partial End  = 3112.57
# Fibre Length    [m]   = 3112.57  0.00
# Fiber Delay    [m]   = 112.57
# Connection Point    [m]   = 192.66
# Rpt.period      [us]  = 65
# Pulse width     [ns]  = 30
# Frequency Start [MHz] = 10690.00
# Frequency End:  [MHz] = 10990.00
# Frequency Step: [MHz] = 5.00
# No.Averages:    [-]   = 12000
# Sampling Rate   [-]   = 0 (200.00MSs, spatial step = 0.50m)
# Input Range     [-]   = 2 (1V)
# Pulse Delay     [m]   = 100
# Post Pulse Data [m]   = 0
# Fiber Type      [-]   = CH4 Land
# Fiber  temperature [C] = 27.00
# Fiber  Bril Frequency  [MHz] = 10840.00
# Fiber  Strain Coefficient  [ue/MHz] = 18.9150
# Fiber Temperature Coefficient [C/MHz] = 0.9765
# Fiber Refractive Index = 1.4682
# Fiber Sigma = 0.2000
#
#----------------------------------
6104

-112.5700   0.0000
-112.0700   0.0000
-111.5700   0.0000
-111.0700   0.0000
-110.5700   0.0000
-110.0700   0.0000
-109.5700   0.0000
-109.0700   0.0000
-108.5700   0.0000
-108.0700   0.0000
-107.5700   0.0000
-107.0700   0.0000
-106.5700   0.0000
-106.0700   0.0000
-105.5700   0.0000
-105.0700   0.0000
-104.5700   0.0000
-104.0700   0.0000
-103.5700   0.0000
-103.0700   0.0000
-102.5700   0.0000
-102.0700   0.0000
-101.5700   0.0000
-101.0700   0.0000
-100.5700   0.0000
-100.0700   0.0000
-99.5700   0.0000
-99.0700   0.0000
-98.5700   0.0000
-98.0700   0.0000
-97.5700   0.0000
-97.0700   0.0000
-96.5700   0.0000
-96.0700   0.0000
-95.5700   0.0000
-95.0700   0.0000
-94.5700   0.0000
-94.0700   0.0000
-93.5700   0.0000
-93.0700   0.0000
-92.5700   0.0000
-92.0700   0.0000
-91.5700   0.0000
-91.0700   0.0000
-90.5700   0.0000
-90.0700   0.0000
-89.5700   0.0000
-89.0700   0.0000
-88.5700   0.0000
-88.0700   0.0000
-87.5700   0.0000
-87.0700   0.0000
-86.5700   0.0000
-86.0700   0.0000
-85.5700   0.0000
-85.0700   0.0000
-84.5700   0.0000
-84.0700   0.0000
-83.5700   0.0000
-83.0700   0.0000
-82.5700   0.0000
-82.0700   0.0000
-81.5700   0.0000
-81.0700   0.0000
-80.5700   0.0000
-80.0700   0.0000
-79.5700   0.0000
-79.0700   0.0000
-78.5700   0.0000
-78.0700   0.0000
-77.5700   0.0000
-77.0700   0.0000
-76.5700   0.0000
-76.0700   0.0000
-75.5700   0.0000
-75.0700   0.0000
-74.5700   0.0000
-74.0700   0.0000
-73.5700   0.0000
-73.0700   0.0000
-72.5700   0.0000
-72.0700   0.0000
-71.5700   0.0000
-71.0700   0.0000
-70.5700   0.0000
-70.0700   0.0000
-69.5700   0.0000
-69.0700   0.0000
-68.5700   0.0000
-68.0700   0.0000
-67.5700   0.0000
-67.0700   0.0000
-66.5700   0.0000
-66.0700   0.0000
-65.5700   0.0000
-65.0700   0.0000
-64.5700   0.0000
-64.0700   0.0000
-63.5700   0.0000
-63.0700   0.0000
-62.5700   0.0000
-62.0700   0.0000
-61.5700   0.0000
-61.0700   0.0000
-60.5700   0.0000
-60.0700   0.0000
-59.5700   0.0000
-59.0700   0.0000
-58.5700   0.0000
-58.0700   0.0000
-57.5700   0.0000
-57.0700   0.0000
-56.5700   0.0000
-56.0700   0.0000
-55.5700   0.0000
-55.0700   0.0000
-54.5700   0.0000
-54.0700   0.0000
-53.5700   0.0000
-53.0700   0.0000
-52.5700   0.0000
-52.0700   0.0000
-51.5700   0.0000
-51.0700   0.0000
-50.5700   0.0000
-50.0700   0.0000
-49.5700   0.0000
-49.0700   0.0000
-48.5700   0.0000
-48.0700   0.0000
-47.5700   0.0000
-47.0700   0.0000
-46.5700   0.0000
-46.0700   0.0000
-45.5700   0.0000
-45.0700   0.0000
-44.5700   0.0000
-44.0700   0.0000
-43.5700   0.0000
-43.0700   0.0000
-42.5700   0.0000
-42.0700   0.0000
-41.5700   0.0000
-41.0700   0.0000
-40.5700   0.0000
-40.0700   0.0000
-39.5700   0.0000
-39.0700   0.0000
-38.5700   0.0000
-38.0700   0.0000
-37.5700   0.0000
-37.0700   0.0000
-36.5700   0.0000
-36.0700   0.0000
-35.5700   0.0000
-35.0700   0.0000
-34.5700   0.0000
-34.0700   0.0000
-33.5700   0.0000
-33.0700   0.0000
-32.5700   0.0000
-32.0700   0.0000
-31.5700   0.0000
-31.0700   0.0000
-30.5700   0.0000
-30.0700   0.0000
-29.5700   0.0000
-29.0700   0.0000
-28.5700   0.0000
-28.0700   0.0000
-27.5700   0.0000
-27.0700   0.0000
-26.5700   0.0000
-26.0700   0.0000
-25.5700   0.0000
-25.0700   0.0000
-24.5700   0.0000
-24.0700   0.0000
-23.5700   0.0000
-23.0700   0.0000
-22.5700   0.0000
-22.0700   0.0000
-21.5700   0.0000
-21.0700   0.0000
-20.5700   0.0000
-20.0700   0.0000
-19.5700   0.0000
-19.0700   0.0000
-18.5700   0.0000
-18.0700   0.0000
-17.5700   0.0000
-17.0700   0.0000
-16.5700   0.0000
-16.0700   0.0000
-15.5700   0.0000
-15.0700   0.0000
-14.5700   0.0000
-14.0700   0.0000
-13.5700   0.0000
-13.0700   0.0000
-12.5700   0.0000
-12.0700   0.0000
-11.5700   0.0000
-11.0700   0.0000
-10.5700   0.0000
-10.0700   0.0000
-9.5700   0.0000
-9.0700   0.0000
-8.5700   0.0000
-8.0700   0.0000
-7.5700   0.0000
-7.0700   0.0000
-6.5700   0.0000
-6.0700   0.0000
-5.5700   0.0000
-5.0700   0.0000
-4.5700   0.0000
-4.0700   0.0000
-3.5700   0.0000
-3.0700   0.0000
-2.5700   0.0000
-2.0700   0.0000
-1.5700   0.0000
-1.0700   -50.2912
-0.5700   -8.5489
-0.0700   -4.8378
0.4400   8.3117
0.9500   3.0523
1.4600   14.6441
1.9700   -31.9851
2.4800   19.2844
2.9900   54.7952
3.5000   50.8322
4.0100   36.5656
4.5200   127.5278
5.0300   104.7803
5.5500   30.1800
6.0600   10.4022
6.5700   -10.9421
7.0800   2.1298
7.5900   -13.4019
8.1000   -24.3162
8.6100   -23.7712
9.1200   -29.4863
9.6300   -37.5013
10.1400   -40.0627
10.6500   -19.1349
11.1600   3.6836
11.6700   14.7314
12.1800   3.2621
12.6900   5.6421
13.2000   -7.2926
13.7100   -8.7539
14.2200   7.9743
14.7300   12.6715
15.2400   -31.6489
15.7500   -19.1778
16.2700   -9.5097
16.7800   5.8843
17.2900   -12.7358
17.8000   -2.7557
18.3100   11.7687
18.8200   24.4406
19.3300   13.6504
19.8400   -0.8373
20.3500   13.1380
20.8600   -11.9053
21.3700   -28.1614
21.8800   -15.3724
22.3900   -11.3534
22.9000   -5.5217
23.4100   -19.5283
23.9200   -8.5451
24.4300   5.2643
24.9400   -2.1306
25.4500   12.7216
25.9600   -8.6720
26.4700   -5.9946
26.9900   0.5577
27.5000   0.9081
28.0100   -10.9225
28.5200   -18.9463
29.0300   -10.2801
29.5400   11.9282
30.0500   0.7838
30.5600   -3.7617
31.0700   -22.4462
31.5800   -12.7288
32.0900   10.7912
32.6000   -4.5417
33.1100   -8.4214
33.6200   -17.7656
34.1300   -6.4571
34.6400   -24.9577
35.1500   -18.9022
35.6600   -13.4573
36.1700   -38.9194
36.6800   -28.6029
37.1900   -6.4358
37.7100   -35.2012
38.2200   -21.3011
38.7300   10.7346
39.2400   -9.5281
39.7500   -0.2058
40.2600   -16.0751
40.7700   -16.2876
41.2800   29.0534
41.7900   30.6392
42.3000   19.2248
42.8100   11.2141
43.3200   8.9804
43.8300   -8.0141
44.3400   -6.4567
44.8500   -37.8785
45.3600   -57.1111
45.8700   -43.1371
46.3800   -25.2222
46.8900   -27.6936
47.4000   -9.6480
47.9100   -3.9079
48.4300   -42.8962
48.9400   -29.8972
49.4500   -16.2141
49.9600   -13.1450
50.4700   -17.6007
50.9800   -29.2938
51.4900   -7.5908
52.0000   8.8248
52.5100   -26.2014
53.0200   -25.8172
53.5300   -21.8974
54.0400   -11.0064
54.5500   -16.3757
55.0600   -9.3585
55.5700   7.2845
56.0800   13.9587
56.5900   -0.0537
57.1000   12.7089
57.6100   4.9072
58.1200   -4.3792
58.6300   -8.5661
59.1500   16.9697
59.6600   11.9001
60.1700   2.7694
60.6800   -35.5232
61.1900   -8.4553
61.7000   -27.1574
62.2100   -15.6784
62.7200   -6.4128
63.2300   -16.1976
63.7400   -13.5048
64.2500   10.8910
64.7600   -26.5937
65.2700   13.3847
65.7800   32.8088
66.2900   12.3088
66.8000   -5.6877
67.3100   20.6973
67.8200   36.6106
68.3300   8.3078
68.8400   -15.8313
69.3500   12.6041
69.8700   5.0152
70.3800   -7.1127
70.8900   -8.5568
71.4000   -2.7621
71.9100   -4.7075
72.4200   -1.2861
72.9300   -12.6604
73.4400   -11.5154
73.9500   -3.6126
74.4600   -0.2363
74.9700   5.8590
75.4800   11.7521
75.9900   -36.4999
76.5000   -15.8771
77.0100   7.8119
77.5200   19.2622
78.0300   19.7513
78.5400   8.0475
79.0500   -4.6049
79.5600   -3.7893
80.0700   -0.7289
80.5900   -30.3295
81.1000   -24.7710
81.6100   -21.0732
82.1200   -12.7359
82.6300   -7.8215
83.1400   14.5753
83.6500   3.5651
84.1600   6.3365
84.6700   -15.4445
85.1800   2.0893
85.6900   24.8607
86.2000   -6.3358
86.7100   -9.7429
87.2200   5.8740
87.7300   0.9209
88.2400   16.3242
88.7500   14.0813
89.2600   -38.2737
89.7700   -131.9417
90.2800   -378.3000
90.7900   472.8750
91.3100   189.1500
91.8200   283.7250
92.3300   -235.6181
92.8400   -63.6988
93.3500   -61.4795
93.8600   -45.1332
94.3700   -29.7776
94.8800   -19.8538
95.3900   11.9846
95.9000   -2.5232
96.4100   12.5227
96.9200   -9.5827
97.4300   -10.8203
97.9400   10.8052
98.4500   -30.8692
98.9600   -26.8030
99.4700   -20.4418
99.9800   -15.7501
100.4900   -5.1760
101.0000   -2.0177
101.5100   12.5618
102.0300   17.2684
102.5400   18.4384
103.0500   -3.1054
103.5600   5.2839
104.0700   -7.6995
104.5800   8.3761
105.0900   0.1134
105.6000   -35.4127
106.1100   -35.7226
106.6200   -3.0764
107.1300   -10.4936
107.6400   -25.2697
108.1500   -27.2144
108.6600   -27.6170
109.1700   -26.9932
109.6800   18.6773
110.1900   9.6717
110.7000   -4.1419
111.2100   -30.0540
111.7200   -4.0551
112.2300   -3.7641
112.7500   -33.6776
113.2600   -36.9759
113.7700   -26.4282
114.2800   -9.0031
114.7900   11.2702
115.3000   3.4723
115.8100   -7.0291
116.3200   -14.9853
116.8300   20.3098
117.3400   27.0163
117.8500   7.6898
118.3600   -5.1964
118.8700   -24.4388
119.3800   -36.7148
119.8900   -11.6311
120.4000   1.5184
120.9100   3.8844
121.4200   8.4321
121.9300   -19.1703
122.4400   -14.3801
122.9500   -10.7594
123.4700   -52.5543
123.9800   -10.0131
124.4900   3.7383
125.0000   13.2992
125.5100   9.3887
126.0200   9.5988
126.5300   10.0722
127.0400   -4.2607
127.5500   -10.6504
128.0600   -52.2204
128.5700   -24.7284
129.0800   -19.5646
129.5900   -46.5357
130.1000   -41.4614
130.6100   -34.1289
131.1200   -1.2796
131.6300   -8.5245
132.1400   -4.3165
132.6500   -16.9446
133.1600   22.6799
133.6700   17.9489
134.1900   -21.8436
134.7000   -19.0042
135.2100   -1.0618
135.7200   3.7986
136.2300   -18.1176
136.7400   -19.2140
137.2500   -28.4113
137.7600   -28.9848
138.2700   -31.1622
138.7800   -20.9340
139.2900   -3.0222
139.8000   -16.0422
140.3100   -54.8817
140.8200   -9.7603
141.3300   13.4302
141.8400   23.9106
142.3500   42.6935
142.8600   1.8029
143.3700   7.3428
143.8800   13.9406
144.3900   -19.4855
144.9100   -20.7053
145.4200   -5.1346
145.9300   -4.2241
146.4400   -37.8641
146.9500   -34.7170
147.4600   -4.5565
147.9700   -43.0288
148.4800   -42.8873
148.9900   1.6699
149.5000   -13.7731
150.0100   -14.1163
150.5200   -2.8521
151.0300   -22.8605
151.5400   -2.9000
152.0500   -1.1447
152.5600   -14.5070
153.0700   -37.4710
153.5800   15.0252
154.0900   48.4516
154.6000   27.0598
155.1100   -33.4821
155.6300   -53.6686
156.1400   -38.7447
156.6500   -13.1200
157.1600   -20.9331
157.6700   -24.5919
158.1800   -21.8636
158.6900   -4.3536
159.2000   -5.3533
159.7100   -29.5462
160.2200   -20.1607
160.7300   -23.3784
161.2400   -5.6603
161.7500   -52.4113
162.2600   -46.8365
162.7700   -27.2312
163.2800   5.7046
163.7900   -17.9267
164.3000   -35.1212
164.8100   -27.2837
165.3200   4.8533
165.8300   0.4614
166.3500   -15.0615
166.8600   6.9224
167.3700   32.9329
167.8800   22.6741
168.3900   -24.9873
168.9000   -53.3785
169.4100   -20.6496
169.9200   -13.3985
170.4300   -10.5288
170.9400   -19.8683
171.4500   30.2993
171.9600   -27.3452
172.4700   -5.2478
172.9800   8.6007
173.4900   -15.1134
174.0000   -11.8607
174.5100   15.3803
175.0200   20.7230
175.5300   6.5881
176.0400   -31.8915
176.5500   2.2578
177.0700   6.3183
177.5800   18.7109
178.0900   7.7461
178.6000   -6.9822
179.1100   0.2900
179.6200   17.9425
180.1300   26.7268
180.6400   53.1659
181.1500   1.9537
181.6600   8.3730
182.1700   -15.6832
182.6800   10.0309
183.1900   -28.6920
183.7000   -41.6058
184.2100   -58.0820
184.7200   4.0942
185.2300   -39.5217
185.7400   -33.9939
186.2500   -10.5978
186.7600   2.4119
187.2700   -13.1583
187.7900   30.0990
188.3000   28.2015
188.8100   7.5956
189.3200   -22.2692
189.8300   6.5962
190.3400   -6.8762
190.8500   17.8889
191.3600   20.6678
191.8700   20.0557
192.3800   28.1719
192.8900   9.4390
193.4000   -12.9259
193.9100   18.9709
194.4200   27.1126
194.9300   83.0483
195.4400   25.7678
195.9500   -0.6448
196.4600   -16.6351
196.9700   -29.4201
197.4800   -5.1555
197.9900   14.9209
198.5100   11.1405
199.0200   20.4978
199.5300   20.4695
200.0400   -4.4345
200.5500   -31.0083
201.0600   -7.9365
201.5700   -1.4135
202.0800   41.0466
202.5900   61.0120
203.1000   22.9436
203.6100   -9.6951
204.1200   -17.4832
204.6300   4.1443
205.1400   9.8607
205.6500   46.4705
206.1600   -11.2970
206.6700   -35.1791
207.1800   -68.1979
207.6900   -25.1019
208.2000   -34.8794
208.7100   -44.8178
209.2300   -5.7197
209.7400   -27.1253
210.2500   -0.9657
210.7600   5.3794
211.2700   -9.6623
211.7800   -27.3269
212.2900   -31.8261
212.8000   -59.1137
213.3100   -29.6026
213.8200   -30.9873
214.3300   -21.6220
214.8400   -24.4502
215.3500   -4.5045
215.8600   -34.9598
216.3700   -35.7263
216.8800   4.9438
217.3900   15.5505
217.9000   -6.4090
218.4100   -13.3985
218.9200   5.2580
219.4300   12.9382
219.9500   16.3136
220.4600   -15.8049
220.9700   -15.9594
221.4800   -2.3464
221.9900   -7.2023
222.5000   -6.1123
223.0100   -41.9729
223.5200   -50.5905
224.0300   -49.0626
224.5400   -68.4310
225.0500   -59.7500
225.5600   -60.8903
226.0700   -56.7734
226.5800   -61.0441
227.0900   -78.3059
227.6000   -58.0089
228.1100   -30.9930
228.6200   -34.8151
229.1300   -15.4257
229.6400   35.4895
230.1500   34.5270
230.6700   9.3167
231.1800   -7.4908
231.6900   13.4137
232.2000   26.0488
232.7100   -15.7299
233.2200   -19.5851
233.7300   -28.5660
234.2400   -45.2925
234.7500   3.5688
235.2600   33.7835
235.7700   -1.2402
236.2800   7.6559
236.7900   4.5445
237.3000   14.3418
237.8100   -17.9575
238.3200   6.7621
238.8300   -11.2323
239.3400   -0.8467
239.8500   -12.8272
240.3600   -34.3515
240.8700   -41.3915
241.3900   12.4782
241.9000   6.4504
242.4100   -21.7434
242.9200   -18.5995
243.4300   -7.7952
243.9400   -35.8939
244.4500   6.5485
244.9600   -3.2760
245.4700   3.2584
245.9800   -11.3814
246.4900   34.6104
247.0000   24.3792
247.5100   -11.3580
248.0200   -14.9418
248.5300   -6.2178
249.0400   -5.2050
249.5500   6.0478
250.0600   0.9052
250.5700   -24.7763
251.0800   -38.0849
251.5900   22.7915
252.1100   40.1741
252.6200   28.8717
253.1300   -24.9155
253.6400   4.2978
254.1500   47.4714
254.6600   20.9767
255.1700   -2.4194
255.6800   -11.7020
256.1900   -30.1806
256.7000   -24.9755
257.2100   -15.1098
257.7200   3.4044
258.2300   0.9479
258.7400   34.5183
259.2500   58.8714
259.7600   8.8273
260.2700   -18.8814
260.7800   -4.0361
261.2900   -11.5564
261.8000   -16.5964
262.3100   -3.8047
262.8300   -27.1898
263.3400   -16.6526
263.8500   -11.9505
264.3600   -9.7622
264.8700   -27.9792
265.3800   -52.5954
265.8900   -37.9808
266.4000   -40.7571
266.9100   -26.7807
267.4200   -44.5822
267.9300   -20.9492
268.4400   14.1463
268.9500   18.1878
269.4600   -10.8555
269.9700   -24.3512
270.4800   -21.8757
270.9900   -28.2903
271.5000   -55.6111
272.0100   -38.8530
272.5200   -29.5070
273.0300   -68.2491
273.5500   -63.7834
274.0600   -10.9251
274.5700   11.2360
275.0800   3.1938
275.5900   17.0255
276.1000   16.4390
276.6100   -1.9323
277.1200   -28.0972
277.6300   -52.6091
278.1400   -40.7444
278.6500   -34.9004
279.1600   -19.4385
279.6700   -2.0968
280.1800   -29.2158
280.6900   -29.6700
281.2000   -7.8061
281.7100   -35.1833
282.2200   -33.5942
282.7300   3.2935
283.2400   22.4249
283.7500   27.7289
284.2700   11.2811
284.7800   -1.8303
285.2900   7.8044
285.8000   -17.9941
286.3100   -61.9052
286.8200   7.2750
287.3300   -1.0474
287.8400   42.7080
288.3500   12.9789
288.8600   7.0400
289.3700   -25.1056
289.8800   -4.3133
290.3900   -9.0711
290.9000   31.9245
291.4100   38.5662
291.9200   60.6101
292.4300   -17.4636
292.9400   -19.4265
293.4500   2.1344
293.9600   19.4027
294.4700   -9.5033
294.9900   -40.2746
295.5000   -42.1499
296.0100   -38.4248
296.5200   -46.3737
297.0300   1.7602
297.5400   19.6392
298.0500   -14.6130
298.5600   -1.4383
299.0700   -3.0761
299.5800   -25.4459
300.0900   -31.3499
300.6000   -62.8492
301.1100   -64.6255
301.6200   -15.1164
302.1300   0.9065
302.6400   16.2587
303.1500   22.3527
303.6600   11.9630
304.1700   19.1479
304.6800   -4.4592
305.1900   -20.5664
305.7100   -28.2961
306.2200   -12.5186
306.7300   -12.8263
307.2400   34.1635
307.7500   -28.7859
308.2600   -34.2533
308.7700   -18.5935
309.2800   -25.3244
309.7900   -5.5026
310.3000   20.0996
310.8100   19.8547
311.3200   9.3718
311.8300   -3.6075
312.3400   -12.8495
312.8500   -30.3599
313.3600   -20.1621
313.8700   -18.2627
314.3800   24.4921
314.8900   -10.3482
315.4000   -1.1834
315.9100   -7.9545
316.4300   -18.1148
316.9400   -9.3118
317.4500   5.9434
317.9600   2.2431
318.4700   29.9192
318.9800   56.6244
319.4900   57.6409
320.0000   43.1634
320.5100   17.7383
321.0200   -9.0656
321.5300   -33.4362
322.0400   -47.3368
322.5500   -25.8631
323.0600   -10.2134
323.5700   -22.2005
324.0800   -37.2090
324.5900   -24.4274
325.1000   -35.3328
325.6100   -42.7086
326.1200   -16.7968
326.6300   -24.5372
327.1500   15.0954
327.6600   -26.9634
328.1700   -9.1913
328.6800   -21.1245
329.1900   -67.1175
329.7000   -34.6609
330.2100   8.6869
330.7200   20.2093
331.2300   -28.7354
331.7400   -10.2349
332.2500   -58.1956
332.7600   -27.5832
333.2700   -11.9698
333.7800   -21.4019
334.2900   -57.7210
334.8000   -25.0879
335.3100   0.7953
335.8200   6.5107
336.3300   -14.2915
336.8400   -2.5063
337.3500   14.5432
337.8700   -2.9249
338.3800   -46.7009
338.8900   -58.1001
339.4000   -29.4686
339.9100   -11.3472
340.4200   -39.0186
340.9300   -39.3820
341.4400   8.3843
341.9500   21.3560
342.4600   -4.3989
342.9700   -19.4338
343.4800   -33.0344
343.9900   -24.4339
344.5000   -6.3820
345.0100   3.3703
345.5200   3.7067
346.0300   7.6305
346.5400   -570.3224
347.0500   22.9778
347.5600   7.9204
348.0700   4.5158
348.5900   32.6362
349.1000   21.5423
349.6100   -16.2450
350.1200   28.3157
350.6300   21.8659
351.1400   9.7139
351.6500   -3.0501
352.1600   -19.5838
352.6700   -16.8629
353.1800   20.3576
353.6900   -24.9997
354.2000   -35.5609
354.7100   -17.0670
355.2200   6.8626
355.7300   29.8759
356.2400   -33.3210
356.7500   -42.2858
357.2600   -12.3957
357.7700   -17.7450
358.2800   -42.3512
358.7900   -17.0748
359.3100   -38.0978
359.8200   -37.0896
360.3300   -51.4825
360.8400   -38.1392
361.3500   -41.5830
361.8600   -21.5593
362.3700   -34.3315
362.8800   -43.2121
363.3900   -23.4992
363.9000   4.0747
364.4100   3.9056
364.9200   -5.4567
365.4300   -15.0476
365.9400   -37.4733
366.4500   -35.4085
366.9600   -50.8008
367.4700   -27.1042
367.9800   11.5117
368.4900   13.0272
369.0000   -24.3721
369.5100   -9.0373
370.0300   13.6257
370.5400   7.2485
371.0500   51.7329
371.5600   28.9958
372.0700   14.3185
372.5800   -36.1123
373.0900   -56.2057
373.6000   -19.7301
374.1100   -21.3803
374.6200   -48.2978
