#----------------------------------
# BOTDR
# DSTS: v.07.1
# Fri Oct 22 13:45:15 2021
#
# Channel No  = 0
# Partial   = 0
# Partial Start  = 0.00
# Partial End  = 5118.55
# Fibre Length    [m]   = 5118.55  0.00
# Fiber Delay    [m]   = 118.55
# Connection Point    [m]   = 198.64
# Rpt.period      [us]  = 65
# Pulse width     [ns]  = 40
# Frequency Start [MHz] = 10690.00
# Frequency End:  [MHz] = 10990.00
# Frequency Step: [MHz] = 5.00
# No.Averages:    [-]   = 12000
# Sampling Rate   [-]   = 2 (50.00MSs, spatial step = 2.00m)
# Input Range     [-]   = 2 (1V)
# Pulse Delay     [m]   = 100
# Post Pulse Data [m]   = 0
# Fiber Type      [-]   = CH4 Land
# Fiber  temperature [C] = 27.00
# Fiber  Bril Frequency  [MHz] = 10840.00
# Fiber  Strain Coefficient  [ue/MHz] = 18.9150
# Fiber Temperature Coefficient [C/MHz] = 0.9765
# Fiber Refractive Index = 1.4682
# Fiber Sigma = 0.2000
#
#----------------------------------
2509

-118.5500   0.0000
-116.5500   0.0000
-114.5500   0.0000
-112.5500   0.0000
-110.5500   0.0000
-108.5500   0.0000
-106.5500   0.0000
-104.5500   0.0000
-102.5500   0.0000
-100.5500   0.0000
-98.5500   0.0000
-96.5500   0.0000
-94.5500   0.0000
-92.5500   0.0000
-90.5500   0.0000
-88.5500   0.0000
-86.5500   0.0000
-84.5500   0.0000
-82.5500   0.0000
-80.5500   0.0000
-78.5500   0.0000
-76.5500   0.0000
-74.5500   0.0000
-72.5500   0.0000
-70.5500   0.0000
-68.5500   0.0000
-66.5500   0.0000
-64.5500   0.0000
-62.5500   0.0000
-60.5500   0.0000
-58.5500   0.0000
-56.5500   0.0000
-54.5500   0.0000
-52.5500   0.0000
-50.5500   0.0000
-48.5500   0.0000
-46.5500   0.0000
-44.5500   0.0000
-42.5500   0.0000
-40.5500   0.0000
-38.5500   0.0000
-36.5500   0.0000
-34.5500   0.0000
-32.5500   0.0000
-30.5500   0.0000
-28.5500   0.0000
-26.5500   0.0000
-24.5500   0.0000
-22.5500   0.0000
-20.5500   0.0000
-18.5500   0.0000
-16.5500   0.0000
-14.5500   0.0000
-12.5500   0.0000
-10.5500   0.0000
-8.5500   0.0000
-6.5500   0.0000
-4.5500   0.0000
-2.5500   -102.5350
-0.5500   -64.9290
1.4900   107.6354
3.5300   913.6317
5.5800   1644.0844
7.6200   689.8492
9.6600   617.4901
11.7000   617.0690
13.7400   665.6192
15.7900   681.3816
17.8300   674.4325
19.8700   673.8729
21.9100   666.4065
23.9500   661.7820
25.9900   664.2297
28.0400   673.4651
30.0800   682.7002
32.1200   686.2043
34.1600   679.0323
36.2000   676.4417
38.2500   683.4380
40.2900   682.5989
42.3300   668.3133
44.3700   651.2218
46.4100   640.2285
48.4600   618.4179
50.5000   615.5807
52.5400   631.9772
54.5800   632.4363
56.6200   637.5838
58.6700   614.0135
60.7100   571.7919
62.7500   552.4832
64.7900   558.1816
66.8300   588.6006
68.8700   613.5772
70.9200   619.3802
72.9600   619.6067
75.0000   622.8145
77.0400   616.4446
79.0800   613.9670
81.1300   607.4069
83.1700   564.6017
85.2100   2.4194
87.2500   -939.6354
89.2900   -1081.9846
91.3400   -149.0171
93.3800   30.0785
95.4200   40.7006
97.4600   43.4634
99.5000   60.9681
101.5500   61.8031
103.5900   63.7002
105.6300   57.9461
107.6700   53.5137
109.7100   46.0286
111.7500   42.1600
113.8000   47.4915
115.8400   51.4483
117.8800   61.3024
119.9200   84.7318
121.9600   96.4447
124.0100   94.7705
126.0500   104.7885
128.0900   107.8423
130.1300   112.8771
132.1700   127.2114
134.2200   112.5973
136.2600   108.2645
138.3000   123.8555
140.3400   119.2558
142.3800   113.6817
144.4300   157.9800
146.4700   196.2338
148.5100   207.6268
150.5500   204.0602
152.5900   198.9835
154.6300   203.3275
156.6800   180.6362
158.7200   177.9669
160.7600   206.4826
162.8000   232.4931
164.8400   191.4998
166.8900   159.9305
168.9300   183.9505
170.9700   245.9785
173.0100   340.0791
175.0500   406.5461
177.1000   425.9371
179.1400   382.4429
181.1800   330.5933
183.2200   323.8732
185.2600   352.7611
187.3100   371.4651
189.3500   365.2099
191.3900   370.2684
193.4300   365.9652
195.4700   325.7396
197.5100   292.0709
199.5600   287.8244
201.6000   315.5442
203.6400   354.2826
205.6800   345.6342
207.7200   315.4051
209.7700   307.7962
211.8100   307.5992
213.8500   306.4432
215.8900   310.0421
217.9300   321.6984
219.9800   313.1045
222.0200   291.4902
224.0600   269.2349
226.1000   283.0148
228.1400   290.0323
230.1900   278.6889
232.2300   285.2931
234.2700   270.1237
236.3100   256.7464
238.3500   280.2946
240.3900   295.6974
242.4400   285.9522
244.4800   233.7939
246.5200   156.6124
248.5600   145.0203
250.6000   192.5243
252.6500   251.9398
254.6900   262.9557
256.7300   213.9689
258.7700   196.7260
260.8100   208.5516
262.8600   230.3627
264.9000   257.8625
266.9400   268.0932
268.9800   277.0691
271.0200   271.6188
273.0700   291.4827
275.1100   327.6843
277.1500   359.0359
279.1900   368.7433
281.2300   374.4024
283.2700   372.0113
285.3200   366.6985
287.3600   346.0557
289.4000   308.2041
291.4400   293.3501
293.4800   303.4705
295.5300   307.3643
297.5700   311.9232
299.6100   324.9051
301.6500   339.4053
303.6900   346.8407
305.7400   343.1607
307.7800   325.0742
309.8200   313.1779
311.8600   307.5117
313.9000   308.9100
315.9500   321.7982
317.9900   356.5689
320.0300   378.8756
322.0700   380.0610
324.1100   376.7482
326.1500   377.9440
328.2000   387.6136
330.2400   400.7696
332.2800   407.8595
334.3200   404.7904
336.3600   395.8455
338.4100   396.1152
340.4500   403.8062
342.4900   427.5229
344.5300   438.3540
346.5700   435.3362
348.6200   417.5797
350.6600   387.2620
352.7000   360.3220
354.7400   361.9021
356.7800   379.6120
358.8300   396.4254
360.8700   392.8992
362.9100   374.8699
364.9500   357.9285
366.9900   341.6964
369.0300   324.8109
371.0800   312.0747
373.1200   297.1289
375.1600   310.1412
377.2000   312.4765
379.2400   282.2924
381.2900   247.6567
383.3300   235.0792
385.3700   229.4855
387.4100   242.7431
389.4500   259.3172
391.5000   274.0903
393.5400   286.8394
395.5800   288.7521
397.6200   294.2089
399.6600   294.5545
401.7100   290.0634
403.7500   305.5685
405.7900   311.9390
407.8300   318.3498
409.8700   319.7247
411.9100   304.4371
413.9600   287.7595
416.0000   284.8685
418.0400   287.4720
420.0800   274.5945
422.1200   265.6955
424.1700   271.4196
426.2100   274.9644
428.2500   279.3054
430.2900   275.9428
432.3300   274.6416
434.3800   282.5449
436.4200   281.6916
438.4600   289.0967
440.5000   321.0389
442.5400   366.4347
444.5900   384.8907
446.6300   402.8512
448.6700   424.6351
450.7100   444.3870
452.7500   441.0298
454.7900   421.0211
456.8400   424.8640
458.8800   424.7249
460.9200   394.5835
462.9600   355.5330
465.0000   348.1304
467.0500   335.3846
469.0900   292.3022
471.1300   160.8845
473.1700   44.9020
475.2100   18.3508
477.2600   -2.6408
479.3000   -34.1358
481.3400   -57.4011
483.3800   -40.4098
485.4200   -2.3800
487.4700   16.7267
489.5100   9.8332
491.5500   -26.1326
493.5900   -46.5311
495.6300   -79.2372
497.6700   -95.0755
499.7200   -103.3455
501.7600   -139.7275
503.8000   -170.7021
505.8400   -161.1243
507.8800   -141.7811
509.9300   -124.7995
511.9700   -116.7627
514.0100   -117.9995
516.0500   -118.4250
518.0900   -125.5067
520.1400   -129.8119
522.1800   -134.4898
524.2200   -149.3398
526.2600   -158.4350
528.3000   -183.3558
530.3500   -232.0951
532.3900   -249.9974
534.4300   -275.7842
536.4700   -300.6396
538.5100   -294.5810
540.5500   -279.4266
542.6000   -296.4059
544.6400   -310.6402
546.6800   -316.3684
548.7200   -326.1442
550.7600   -323.2010
552.8100   -263.2563
554.8500   -103.9834
556.8900   104.8444
558.9300   187.5114
560.9700   184.2150
563.0200   140.9691
565.0600   119.1679
567.1000   105.2200
569.1400   116.4732
571.1800   109.1928
573.2300   92.7115
575.2700   101.6270
577.3100   116.2525
579.3500   153.7867
581.3900   216.9283
583.4300   248.7210
585.4800   218.7861
587.5200   204.4615
589.5600   251.9415
591.6000   301.0958
593.6400   296.4734
595.6900   287.1210
597.7300   308.8656
599.7700   323.6889
601.8100   287.1347
603.8500   240.0778
605.9000   209.9651
607.9400   203.7836
609.9800   197.3044
612.0200   196.2942
614.0600   215.4067
616.1100   200.7256
618.1500   147.0709
620.1900   114.0305
622.2300   105.1128
624.2700   119.2713
626.3100   146.1634
628.3600   170.9376
630.4000   190.9923
632.4400   211.3302
634.4800   219.1146
636.5200   212.7020
638.5700   199.8694
640.6100   191.0147
642.6500   191.7925
644.6900   200.2925
646.7300   192.6451
648.7800   170.8346
650.8200   155.6851
652.8600   131.8612
654.9000   107.5628
656.9400   112.7532
658.9900   133.7258
661.0300   165.1318
663.0700   199.6593
665.1100   222.8388
667.1500   221.6163
669.1900   221.5496
671.2400   225.1751
673.2800   226.7993
675.3200   233.3903
677.3600   247.7441
679.4000   263.6394
681.4500   274.9869
683.4900   259.1281
685.5300   250.0325
687.5700   266.4611
689.6100   292.9405
691.6600   320.0561
693.7000   310.5784
695.7400   299.4084
697.7800   271.6501
699.8200   286.0107
701.8700   349.6405
703.9100   393.0645
705.9500   414.8955
707.9900   450.5589
710.0300   473.1105
712.0700   470.6465
714.1200   477.2305
716.1600   470.9578
718.2000   449.9223
720.2400   439.1460
722.2800   440.5781
724.3300   435.3206
726.3700   416.2031
728.4100   385.4863
730.4500   370.7257
732.4900   383.6357
734.5400   405.3963
736.5800   421.9547
738.6200   431.5563
740.6600   434.0162
742.7000   436.8583
744.7500   438.6911
746.7900   433.4060
748.8300   406.6026
750.8700   390.4150
752.9100   393.1821
754.9500   393.5940
757.0000   393.3745
759.0400   382.2493
761.0800   371.1641
763.1200   391.2885
765.1600   398.1134
767.2100   399.8885
769.2500   404.8980
771.2900   402.3158
773.3300   384.2791
775.3700   359.6615
777.4200   351.9030
779.4600   341.7169
781.5000   336.4314
783.5400   338.5921
785.5800   346.1915
787.6300   352.6759
789.6700   339.6160
791.7100   331.6895
793.7500   340.0064
795.7900   336.0426
797.8300   306.5506
799.8800   273.4202
801.9200   302.8689
803.9600   332.9496
806.0000   336.5567
808.0400   335.8690
810.0900   332.9864
812.1300   312.9878
814.1700   296.0365
816.2100   305.5821
818.2500   324.5189
820.3000   314.2735
822.3400   291.8350
824.3800   279.7134
826.4200   271.5491
828.4600   279.5606
830.5100   293.3636
832.5500   293.1874
834.5900   293.1307
836.6300   307.8767
838.6700   304.3001
840.7100   263.7028
842.7600   251.2919
844.8000   280.8416
846.8400   291.6607
848.8800   289.3578
850.9200   273.4746
852.9700   264.4360
855.0100   283.2015
857.0500   303.2506
859.0900   287.0241
861.1300   281.7209
863.1800   268.1445
865.2200   244.6285
867.2600   259.2070
869.3000   286.5256
871.3400   303.9977
873.3900   329.4876
875.4300   329.5817
877.4700   323.6895
879.5100   357.5691
881.5500   365.9117
883.5900   296.7422
885.6400   223.7502
887.6800   201.0809
889.7200   213.0209
891.7600   242.0221
893.8000   275.1284
895.8500   309.5342
897.8900   342.1046
899.9300   343.8823
901.9700   302.8424
904.0100   300.1437
906.0600   323.9465
908.1000   333.5672
910.1400   315.3541
912.1800   261.6736
914.2200   192.3741
916.2700   154.8652
918.3100   159.5849
920.3500   176.8955
922.3900   192.1686
924.4300   195.5425
926.4700   226.9859
928.5200   266.8218
930.5600   235.2795
932.6000   193.8291
934.6400   184.8445
936.6800   177.0127
938.7300   158.4814
940.7700   151.9200
942.8100   168.0232
944.8500   186.4174
946.8900   187.2605
948.9400   189.1638
950.9800   236.2343
953.0200   272.9858
955.0600   255.2462
957.1000   228.4051
959.1500   201.9711
961.1900   176.3973
963.2300   147.7162
965.2700   155.9738
967.3100   237.1120
969.3500   361.4753
971.4000   441.9581
973.4400   456.1780
975.4800   441.4249
977.5200   387.3834
979.5600   306.1104
981.6100   264.9013
983.6500   234.7314
985.6900   212.4872
987.7300   190.1641
989.7700   209.8149
991.8200   242.9084
993.8600   245.4582
995.9000   220.5928
997.9400   202.6456
999.9800   213.1534
1002.0300   205.5865
1004.0700   161.2677
1006.1100   139.5062
1008.1500   116.5908
1010.1900   98.0893
1012.2300   92.3801
1014.2800   111.4148
1016.3200   129.0408
1018.3600   137.9066
1020.4000   154.5512
1022.4400   174.5687
1024.4900   223.0339
1026.5300   245.2158
1028.5700   201.2761
1030.6100   180.3074
1032.6500   181.1476
1034.7000   173.6766
1036.7400   161.3316
1038.7800   189.4301
1040.8200   217.0826
1042.8600   217.1947
1044.9100   210.9609
1046.9500   200.7386
1048.9900   219.4797
1051.0300   224.8329
1053.0700   189.7834
1055.1100   168.3770
1057.1600   118.6671
1059.2000   71.4661
1061.2400   54.6335
1063.2800   50.4875
1065.3200   70.2079
1067.3700   94.4082
1069.4100   121.0330
1071.4500   149.5496
1073.4900   194.7031
1075.5300   196.9942
1077.5800   164.8208
1079.6200   173.4493
1081.6600   196.6959
1083.7000   197.8613
1085.7400   179.9707
1087.7900   205.8924
1089.8300   244.9357
1091.8700   279.1441
1093.9100   305.3662
1095.9500   315.8769
1097.9900   325.1528
1100.0400   301.1311
1102.0800   247.0955
1104.1200   213.3409
1106.1600   200.6907
1108.2000   178.7184
1110.2500   179.1213
1112.2900   220.4149
1114.3300   223.7350
1116.3700   194.4429
1118.4100   180.8647
1120.4600   198.7343
1122.5000   224.6707
1124.5400   214.6133
1126.5800   185.4557
1128.6200   129.7527
1130.6700   91.9226
1132.7100   71.5700
1134.7500   96.0551
1136.7900   149.9036
1138.8300   177.7869
1140.8700   199.7572
1142.9200   240.0124
1144.9600   302.0659
1147.0000   324.8416
1149.0400   276.6708
1151.0800   252.3091
1153.1300   242.6924
1155.1700   214.8686
1157.2100   165.8342
1159.2500   141.6193
1161.2900   177.2470
1163.3400   216.0287
1165.3800   225.8218
1167.4200   237.6492
1169.4600   283.6667
1171.5000   289.2894
1173.5500   254.0311
1175.5900   232.5507
1177.6300   208.2654
1179.6700   182.5718
1181.7100   162.6086
1183.7500   192.9455
1185.8000   229.1466
1187.8400   222.1660
1189.8800   218.0271
1191.9200   234.6710
1193.9600   274.9655
1196.0100   283.2996
1198.0500   241.2571
1200.0900   218.4669
1202.1300   212.0878
1204.1700   174.3496
1206.2200   158.1743
1208.2600   201.9204
1210.3000   225.5221
1212.3400   218.1280
1214.3800   218.9113
1216.4300   235.5325
1218.4700   280.2557
1220.5100   289.3528
1222.5500   256.8637
1224.5900   231.9339
1226.6300   225.1331
1228.6800   206.7922
1230.7200   176.5555
1232.7600   194.7990
1234.8000   238.1346
1236.8400   256.4875
1238.8900   253.3256
1240.9300   264.8928
1242.9700   312.6379
1245.0100   294.6847
1247.0500   227.6740
1249.1000   181.2020
1251.1400   165.2688
1253.1800   152.5338
1255.2200   176.6944
1257.2600   225.3756
1259.3100   226.3788
1261.3500   220.8025
1263.3900   226.9677
1265.4300   250.1903
1267.4700   278.3490
1269.5100   258.9768
1271.5600   235.9509
1273.6000   230.3373
1275.6400   218.3572
1277.6800   168.0401
1279.7200   136.7317
1281.7700   158.6834
1283.8100   167.5982
1285.8500   181.0147
1287.8900   186.5160
1289.9300   204.9366
1291.9800   249.8300
1294.0200   244.7423
1296.0600   201.5394
1298.1000   176.4171
1300.1400   148.3841
1302.1900   137.2136
1304.2300   154.1096
1306.2700   183.6285
1308.3100   188.3951
1310.3500   173.0257
1312.3900   159.6105
1314.4400   176.7445
1316.4800   218.2913
1318.5200   202.0609
1320.5600   185.6385
1322.6000   183.6581
1324.6500   160.9381
1326.6900   124.7905
1328.7300   125.3935
1330.7700   138.9192
1332.8100   152.1813
1334.8600   182.8158
1336.9000   231.8595
1338.9400   301.4142
1340.9800   356.1835
1343.0200   354.0539
1345.0700   283.8925
1347.1100   217.8130
1349.1500   164.5123
1351.1900   137.0077
1353.2300   150.7136
1355.2700   209.5733
1357.3200   308.4190
1359.3600   389.1734
1361.4000   399.4517
1363.4400   389.3644
1365.4800   404.6714
1367.5300   430.7639
1369.5700   437.7329
1371.6100   425.5716
1373.6500   386.1261
1375.6900   337.0177
1377.7400   307.1519
1379.7800   340.3030
1381.8200   382.2650
1383.8600   378.6549
1385.9000   353.7628
1387.9500   331.6615
1389.9900   305.2786
1392.0300   297.8088
1394.0700   315.7927
1396.1100   313.0424
1398.1500   264.9940
1400.2000   220.6854
1402.2400   248.1007
1404.2800   298.6533
1406.3200   321.4562
1408.3600   345.9400
1410.4100   324.0686
1412.4500   282.6511
1414.4900   260.7044
1416.5300   248.1203
1418.5700   294.1710
1420.6200   361.6679
1422.6600   338.3517
1424.7000   219.9547
1426.7400   142.1108
1428.7800   163.9856
1430.8300   203.6047
1432.8700   240.3752
1434.9100   264.8519
1436.9500   274.3854
1438.9900   270.9774
1441.0300   252.6091
1443.0800   197.6008
1445.1200   157.8800
1447.1600   156.6044
1449.2000   162.7336
1451.2400   137.4390
1453.2900   127.3051
1455.3300   117.2286
1457.3700   127.1549
1459.4100   173.7190
1461.4500   192.2908
1463.5000   176.0671
1465.5400   169.9624
1467.5800   155.9137
1469.6200   154.8044
1471.6600   187.2215
1473.7100   220.5505
1475.7500   280.2558
1477.7900   312.7098
1479.8300   333.7073
1481.8700   330.9850
1483.9100   304.8102
1485.9600   307.5948
1488.0000   320.1576
1490.0400   367.7537
1492.0800   387.9952
1494.1200   386.6956
1496.1700   389.9563
1498.2100   387.6184
1500.2500   368.8423
1502.2900   362.9852
1504.3300   388.2279
1506.3800   405.9967
1508.4200   388.6499
1510.4600   357.5747
1512.5000   311.3348
1514.5400   281.2313
1516.5900   315.6851
1518.6300   342.7265
1520.6700   369.3603
1522.7100   398.4852
1524.7500   418.6291
1526.7900   465.1969
1528.8400   472.1765
1530.8800   437.5010
1532.9200   384.9089
1534.9600   317.5806
1537.0000   265.6905
1539.0500   261.2852
1541.0900   249.4851
1543.1300   230.1793
1545.1700   220.3347
1547.2100   236.9059
1549.2600   249.1074
1551.3000   256.6928
1553.3400   274.6081
1555.3800   297.3104
1557.4200   281.2279
1559.4700   240.6067
1561.5100   200.4195
1563.5500   110.6550
1565.5900   24.7254
1567.6300   27.1758
1569.6700   26.4788
1571.7200   6.9294
1573.7600   -15.6312
1575.8000   -18.7542
1577.8400   -7.6588
1579.8800   17.2534
1581.9300   36.2598
1583.9700   50.9001
1586.0100   64.1117
1588.0500   0.3005
1590.0900   -43.8980
1592.1400   22.9782
1594.1800   82.2067
1596.2200   46.3118
1598.2600   47.4238
1600.3000   51.0531
1602.3500   48.2925
1604.3900   10.8983
1606.4300   -47.8401
1608.4700   -78.0210
1610.5100   -103.6095
1612.5500   -121.4913
1614.6000   -110.4355
1616.6400   -73.9207
1618.6800   -15.3363
1620.7200   30.8939
1622.7600   40.9741
1624.8100   109.3548
1626.8500   168.1054
1628.8900   156.3284
1630.9300   124.9710
1632.9700   117.1668
1635.0200   112.1510
1637.0600   111.7135
1639.1000   100.7179
1641.1400   104.2639
1643.1800   92.9127
1645.2300   63.7698
1647.2700   42.6368
1649.3100   29.5148
1651.3500   26.5380
1653.3900   42.8402
1655.4300   68.6764
1657.4800   81.4078
1659.5200   61.9255
1661.5600   52.5107
1663.6000   111.3361
1665.6400   157.9633
1667.6900   138.2069
1669.7300   129.2110
1671.7700   199.4007
1673.8100   229.7073
1675.8500   103.8794
1677.9000   65.5444
1679.9400   170.0246
1681.9800   242.4421
1684.0200   222.4359
1686.0600   208.5428
1688.1100   231.8164
1690.1500   302.5658
1692.1900   361.2914
1694.2300   383.9667
1696.2700   405.8920
1698.3100   423.1676
1700.3600   473.9725
1702.4000   513.8743
1704.4400   500.9014
1706.4800   494.1535
1708.5200   451.3699
1710.5700   424.5907
1712.6100   461.5143
