#----------------------------------
# BOTDR
# DSTS: v.07.1
# Fri Oct 22 13:41:39 2021
#
# Channel No  = 0
# Partial   = 0
# Partial Start  = 0.00
# Partial End  = 5118.55
# Fibre Length    [m]   = 5118.55  0.00
# Fiber Delay    [m]   = 118.55
# Connection Point    [m]   = 198.64
# Rpt.period      [us]  = 65
# Pulse width     [ns]  = 40
# Frequency Start [MHz] = 10690.00
# Frequency End:  [MHz] = 10990.00
# Frequency Step: [MHz] = 5.00
# No.Averages:    [-]   = 12000
# Sampling Rate   [-]   = 2 (50.00MSs, spatial step = 2.00m)
# Input Range     [-]   = 2 (1V)
# Pulse Delay     [m]   = 100
# Post Pulse Data [m]   = 0
# Fiber Type      [-]   = CH4 Land
# Fiber  temperature [C] = 27.00
# Fiber  Bril Frequency  [MHz] = 10840.00
# Fiber  Strain Coefficient  [ue/MHz] = 18.9150
# Fiber Temperature Coefficient [C/MHz] = 0.9765
# Fiber Refractive Index = 1.4682
# Fiber Sigma = 0.2000
#
#----------------------------------
2509

-118.5500   0.0000
-116.5500   0.0000
-114.5500   0.0000
-112.5500   0.0000
-110.5500   0.0000
-108.5500   0.0000
-106.5500   0.0000
-104.5500   0.0000
-102.5500   0.0000
-100.5500   0.0000
-98.5500   0.0000
-96.5500   0.0000
-94.5500   0.0000
-92.5500   0.0000
-90.5500   0.0000
-88.5500   0.0000
-86.5500   0.0000
-84.5500   0.0000
-82.5500   0.0000
-80.5500   0.0000
-78.5500   0.0000
-76.5500   0.0000
-74.5500   0.0000
-72.5500   0.0000
-70.5500   0.0000
-68.5500   0.0000
-66.5500   0.0000
-64.5500   0.0000
-62.5500   0.0000
-60.5500   0.0000
-58.5500   0.0000
-56.5500   0.0000
-54.5500   0.0000
-52.5500   0.0000
-50.5500   0.0000
-48.5500   0.0000
-46.5500   0.0000
-44.5500   0.0000
-42.5500   0.0000
-40.5500   0.0000
-38.5500   0.0000
-36.5500   0.0000
-34.5500   0.0000
-32.5500   0.0000
-30.5500   0.0000
-28.5500   0.0000
-26.5500   0.0000
-24.5500   0.0000
-22.5500   0.0000
-20.5500   0.0000
-18.5500   0.0000
-16.5500   0.0000
-14.5500   0.0000
-12.5500   0.0000
-10.5500   0.0000
-8.5500   0.0000
-6.5500   0.0000
-4.5500   0.0000
-2.5500   -97.6854
-0.5500   -57.9681
1.4900   113.3713
3.5300   916.1684
5.5800   1649.8519
7.6200   687.3231
9.6600   612.3831
11.7000   618.7246
13.7400   669.6830
15.7900   678.5004
17.8300   679.1228
19.8700   681.0599
21.9100   682.8683
23.9500   684.1224
25.9900   670.3128
28.0400   665.0208
30.0800   663.3091
32.1200   669.9786
34.1600   668.8167
36.2000   680.0391
38.2500   696.4052
40.2900   694.8484
42.3300   680.8072
44.3700   668.6531
46.4100   658.4484
48.4600   639.5651
50.5000   630.4467
52.5400   633.3362
54.5800   632.3825
56.6200   644.0075
58.6700   615.8662
60.7100   568.9634
62.7500   553.8519
64.7900   561.0766
66.8300   588.9859
68.8700   620.1771
70.9200   626.6817
72.9600   616.8237
75.0000   617.7653
77.0400   617.5708
79.0800   610.5956
81.1300   604.5519
83.1700   563.9702
85.2100   -5.0189
87.2500   -945.1649
89.2900   -1041.4533
91.3400   -209.1918
93.3800   28.3411
95.4200   39.7799
97.4600   46.5993
99.5000   60.5754
101.5500   60.4858
103.5900   59.9786
105.6300   58.2474
107.6700   60.7936
109.7100   57.3431
111.7500   52.0849
113.8000   53.9570
115.8400   64.1894
117.8800   78.7838
119.9200   93.7965
121.9600   99.0970
124.0100   95.3098
126.0500   98.3070
128.0900   117.6962
130.1300   132.9861
132.1700   140.3567
134.2200   123.3583
136.2600   117.3781
138.3000   132.7058
140.3400   126.7450
142.3800   117.8960
144.4300   160.1416
146.4700   191.1081
148.5100   185.6475
150.5500   183.0952
152.5900   184.5192
154.6300   191.1736
156.6800   170.0596
158.7200   156.2492
160.7600   188.7692
162.8000   208.6749
164.8400   177.1713
166.8900   143.8122
168.9300   144.2797
170.9700   170.5648
173.0100   254.2838
175.0500   301.4147
177.1000   298.5488
179.1400   261.5469
181.1800   218.2177
183.2200   208.3970
185.2600   235.5952
187.3100   253.2875
189.3500   244.1670
191.3900   250.0876
193.4300   246.8173
195.4700   209.1312
197.5100   169.0247
199.5600   165.8922
201.6000   192.0056
203.6400   229.8557
205.6800   215.9881
207.7200   185.5865
209.7700   183.5513
211.8100   183.2162
213.8500   192.5728
215.8900   193.7749
217.9300   202.4048
219.9800   191.0270
222.0200   165.9641
224.0600   169.2895
226.1000   181.6524
228.1400   193.2158
230.1900   187.4741
232.2300   176.5361
234.2700   166.0549
236.3100   160.9230
238.3500   170.0611
240.3900   181.0161
242.4400   169.0031
244.4800   142.7851
246.5200   107.5525
248.5600   117.3495
250.6000   141.8967
252.6500   181.5115
254.6900   188.3848
256.7300   143.9352
258.7700   131.1865
260.8100   140.3193
262.8600   156.5295
264.9000   180.1499
266.9400   194.7097
268.9800   196.9915
271.0200   199.6770
273.0700   216.4648
275.1100   242.2081
277.1500   272.2338
279.1900   291.0838
281.2300   293.3383
283.2700   301.5318
285.3200   294.8602
287.3600   279.2152
289.4000   262.9028
291.4400   256.2565
293.4800   269.9146
295.5300   277.0160
297.5700   280.9145
299.6100   292.8642
301.6500   298.4153
303.6900   292.8254
305.7400   300.7376
307.7800   309.5810
309.8200   306.9886
311.8600   283.0220
313.9000   276.3233
315.9500   286.1818
317.9900   298.6632
320.0300   303.8511
322.0700   313.7301
324.1100   312.6117
326.1500   307.1397
328.2000   306.9535
330.2400   312.0048
332.2800   324.4561
334.3200   323.9541
336.3600   321.5301
338.4100   332.8822
340.4500   344.5707
342.4900   348.2005
344.5300   352.5522
346.5700   348.8258
348.6200   344.6721
350.6600   332.9076
352.7000   315.0046
354.7400   316.9011
356.7800   327.5153
358.8300   334.5224
360.8700   322.9558
362.9100   309.9184
364.9500   309.2154
366.9900   292.3984
369.0300   258.2343
371.0800   248.4197
373.1200   240.3474
375.1600   245.8279
377.2000   250.8031
379.2400   253.1603
381.2900   251.4944
383.3300   239.8148
385.3700   220.9098
387.4100   217.4094
389.4500   222.2614
391.5000   225.8691
393.5400   233.4062
395.5800   252.0530
397.6200   257.5824
399.6600   251.8077
401.7100   250.7680
403.7500   257.4149
405.7900   259.1560
407.8300   261.2510
409.8700   274.4279
411.9100   269.9517
413.9600   259.1707
416.0000   254.2919
418.0400   249.3456
420.0800   247.7537
422.1200   250.3116
424.1700   251.8172
426.2100   258.8175
428.2500   261.8640
430.2900   252.8682
432.3300   244.6851
434.3800   254.8756
436.4200   252.9200
438.4600   253.3745
440.5000   280.0019
442.5400   333.6738
444.5900   362.7150
446.6300   370.5905
448.6700   381.6534
450.7100   391.6238
452.7500   387.8326
454.7900   371.5939
456.8400   365.1982
458.8800   364.6151
460.9200   348.9622
462.9600   335.4393
465.0000   355.4246
467.0500   349.1292
469.0900   287.1386
471.1300   133.2827
473.1700   7.0558
475.2100   -16.9849
477.2600   -23.8962
479.3000   -56.7077
481.3400   -69.7873
483.3800   -49.7220
485.4200   -24.4365
487.4700   -18.0354
489.5100   -17.9904
491.5500   -44.1400
493.5900   -81.1157
495.6300   -116.0055
497.6700   -137.0952
499.7200   -157.0756
501.7600   -194.8265
503.8000   -214.1055
505.8400   -200.1963
507.8800   -172.1591
509.9300   -169.9361
511.9700   -186.1327
514.0100   -193.5960
516.0500   -183.0332
518.0900   -191.0553
520.1400   -202.9768
522.1800   -203.5769
524.2200   -203.8632
526.2600   -206.3495
528.3000   -230.9473
530.3500   -266.3061
532.3900   -288.5890
534.4300   -310.5312
536.4700   -323.4064
538.5100   -313.5116
540.5500   -295.9354
542.6000   -315.1624
544.6400   -326.5838
546.6800   -327.8725
548.7200   -333.9757
550.7600   -329.0225
552.8100   -280.9890
554.8500   -130.4224
556.8900   55.9056
558.9300   140.8716
560.9700   147.9981
563.0200   105.1163
565.0600   81.4047
567.1000   70.1131
569.1400   78.4522
571.1800   80.6615
573.2300   59.0571
575.2700   58.4825
577.3100   72.9009
579.3500   93.2695
581.3900   142.5093
583.4300   182.4801
585.4800   168.9247
587.5200   145.2243
589.5600   180.5901
591.6000   229.1630
593.6400   211.5944
595.6900   192.0574
597.7300   232.7778
599.7700   272.0003
601.8100   239.8815
603.8500   191.4252
605.9000   171.9003
607.9400   179.6289
609.9800   184.3848
612.0200   183.5258
614.0600   206.5757
616.1100   191.6999
618.1500   134.3926
620.1900   83.8945
622.2300   58.1457
624.2700   72.3336
626.3100   98.3919
628.3600   115.0833
630.4000   140.2260
632.4400   161.8022
634.4800   175.8579
636.5200   170.5508
638.5700   154.5409
640.6100   144.3180
642.6500   156.8273
644.6900   173.2265
646.7300   163.4861
648.7800   130.5670
650.8200   111.9168
652.8600   114.0048
654.9000   119.8770
656.9400   132.9355
658.9900   151.4299
661.0300   168.7530
663.0700   191.2472
665.1100   208.1660
667.1500   204.1080
669.1900   188.4316
671.2400   188.6056
673.2800   185.2899
675.3200   192.3529
677.3600   204.5512
679.4000   204.9849
681.4500   201.0099
683.4900   203.3867
685.5300   215.3247
687.5700   219.7722
689.6100   255.0211
691.6600   294.7999
693.7000   290.2343
695.7400   260.2055
697.7800   234.4344
699.8200   251.9247
701.8700   312.2373
703.9100   349.2613
705.9500   373.5318
707.9900   387.8956
710.0300   398.2867
712.0700   397.0818
714.1200   409.1665
716.1600   413.1605
718.2000   394.8471
720.2400   385.1157
722.2800   383.3242
724.3300   380.2539
726.3700   371.5401
728.4100   341.3379
730.4500   331.5646
732.4900   336.7286
734.5400   338.2657
736.5800   342.3113
738.6200   349.1112
740.6600   356.3727
742.7000   365.4455
744.7500   366.4680
746.7900   363.4372
748.8300   347.9060
750.8700   332.1903
752.9100   324.0589
754.9500   320.6388
757.0000   331.3556
759.0400   324.7308
761.0800   317.4162
763.1200   331.2871
765.1600   347.7755
767.2100   350.8246
769.2500   356.1467
771.2900   364.6346
773.3300   353.7111
775.3700   330.3174
777.4200   310.0212
779.4600   302.1265
781.5000   308.6409
783.5400   304.4526
785.5800   311.2745
787.6300   321.8241
789.6700   298.1763
791.7100   298.9265
793.7500   311.3802
795.7900   309.4485
797.8300   288.7939
799.8800   257.4342
801.9200   269.8043
803.9600   299.3395
806.0000   304.2026
808.0400   314.4908
810.0900   320.7429
812.1300   301.4018
814.1700   292.4676
816.2100   298.9171
818.2500   309.3185
820.3000   305.0358
822.3400   294.6465
824.3800   283.0165
826.4200   273.3424
828.4600   285.5887
830.5100   293.6605
832.5500   290.2221
834.5900   284.6186
836.6300   283.8442
838.6700   284.4383
840.7100   272.8801
842.7600   273.0450
844.8000   286.9182
846.8400   292.9703
848.8800   287.7312
850.9200   273.2155
852.9700   247.2572
855.0100   253.2090
857.0500   268.5711
859.0900   243.0117
861.1300   230.6736
863.1800   229.0389
865.2200   219.4399
867.2600   232.8658
869.3000   271.8277
871.3400   288.7573
873.3900   298.1188
875.4300   306.6995
877.4700   289.9581
879.5100   306.3442
881.5500   318.8420
883.5900   255.2794
885.6400   186.3399
887.6800   160.0711
889.7200   171.8171
891.7600   202.0318
893.8000   227.7220
895.8500   259.8560
897.8900   296.4347
899.9300   300.3937
901.9700   267.3246
904.0100   261.2535
906.0600   287.1292
908.1000   303.9549
910.1400   281.9446
912.1800   226.5816
914.2200   167.6922
916.2700   130.2815
918.3100   141.7133
920.3500   151.2470
922.3900   153.5704
924.4300   154.6977
926.4700   177.6980
928.5200   210.9206
930.5600   179.2254
932.6000   146.2026
934.6400   149.5606
936.6800   136.7654
938.7300   121.2418
940.7700   118.1063
942.8100   142.1079
944.8500   160.0682
946.8900   156.7778
948.9400   153.2231
950.9800   193.0622
953.0200   228.9714
955.0600   207.7167
957.1000   167.3235
959.1500   145.3828
961.1900   129.1634
963.2300   100.5231
965.2700   111.2842
967.3100   190.6353
969.3500   309.0205
971.4000   388.2533
973.4400   397.0694
975.4800   382.9940
977.5200   326.5627
979.5600   239.4429
981.6100   197.0501
983.6500   174.4015
985.6900   155.8777
987.7300   139.8471
989.7700   146.3398
991.8200   157.1945
993.8600   159.2432
995.9000   159.5451
997.9400   153.4210
999.9800   180.4744
1002.0300   189.5759
1004.0700   137.5609
1006.1100   101.7230
1008.1500   95.7114
1010.1900   83.8673
1012.2300   70.3845
1014.2800   77.5573
1016.3200   100.9149
1018.3600   127.5212
1020.4000   146.7413
1022.4400   161.9109
1024.4900   200.6525
1026.5300   220.9772
1028.5700   175.1047
1030.6100   135.9619
1032.6500   117.0962
1034.7000   105.3106
1036.7400   102.6756
1038.7800   130.2973
1040.8200   156.4611
1042.8600   151.9377
1044.9100   141.4124
1046.9500   150.1060
1048.9900   195.0759
1051.0300   216.2194
1053.0700   175.8193
1055.1100   129.5203
1057.1600   77.9268
1059.2000   41.5444
1061.2400   17.3855
1063.2800   22.1504
1065.3200   46.9423
1067.3700   77.7725
1069.4100   119.7890
1071.4500   168.2078
1073.4900   223.1147
1075.5300   231.7823
1077.5800   194.0302
1079.6200   166.1075
1081.6600   146.6410
1083.7000   134.8561
1085.7400   140.0137
1087.7900   172.2315
1089.8300   212.5305
1091.8700   228.4323
1093.9100   236.9726
1095.9500   255.5621
1097.9900   279.5322
1100.0400   270.1511
1102.0800   236.0691
1104.1200   206.3753
1106.1600   169.8667
1108.2000   131.6893
1110.2500   114.6760
1112.2900   135.6632
1114.3300   130.8131
1116.3700   124.2328
1118.4100   138.1395
1120.4600   185.4809
1122.5000   221.5901
1124.5400   191.9547
1126.5800   151.3499
1128.6200   99.3702
1130.6700   69.8972
1132.7100   60.1459
1134.7500   83.6603
1136.7900   143.5427
1138.8300   179.2603
1140.8700   192.0122
1142.9200   216.7269
1144.9600   266.5999
1147.0000   284.8993
1149.0400   244.8851
1151.0800   215.9420
1153.1300   202.3418
1155.1700   191.9330
1157.2100   158.5685
1159.2500   142.6929
1161.2900   170.7403
1163.3400   192.5493
1165.3800   190.6572
1167.4200   197.7743
1169.4600   235.9401
1171.5000   239.2570
1173.5500   202.5620
1175.5900   173.7869
1177.6300   155.2764
1179.6700   137.7227
1181.7100   130.9761
1183.7500   162.4289
1185.8000   183.9170
1187.8400   168.8705
1189.8800   156.5412
1191.9200   164.2807
1193.9600   212.1907
1196.0100   223.9900
1198.0500   174.4572
1200.0900   160.6696
1202.1300   155.9784
1204.1700   121.6278
1206.2200   112.6226
1208.2600   142.9489
1210.3000   142.9708
1212.3400   128.8683
1214.3800   128.0052
1216.4300   152.0247
1218.4700   201.9659
1220.5100   195.6754
1222.5500   150.9512
1224.5900   131.9888
1226.6300   127.4574
1228.6800   123.9260
1230.7200   131.0728
1232.7600   157.8054
1234.8000   184.3582
1236.8400   187.4521
1238.8900   180.9013
1240.9300   189.4217
1242.9700   226.2691
1245.0100   209.9235
1247.0500   161.2980
1249.1000   157.9691
1251.1400   149.8865
1253.1800   127.9308
1255.2200   125.7752
1257.2600   168.9419
1259.3100   196.4251
1261.3500   218.6558
1263.3900   221.0914
1265.4300   239.9136
1267.4700   270.5665
1269.5100   245.6477
1271.5600   210.0726
1273.6000   194.6333
1275.6400   187.5925
1277.6800   146.2537
1279.7200   116.4338
1281.7700   137.6491
1283.8100   165.0172
1285.8500   193.7992
1287.8900   206.2122
1289.9300   213.4747
1291.9800   244.8378
1294.0200   254.7451
1296.0600   225.9795
1298.1000   204.4257
1300.1400   176.7800
1302.1900   142.5776
1304.2300   122.1909
1306.2700   138.6788
1308.3100   151.5655
1310.3500   146.6379
1312.3900   138.2172
1314.4400   141.2004
1316.4800   166.7076
1318.5200   162.2245
1320.5600   157.4238
1322.6000   149.0986
1324.6500   116.5984
1326.6900   86.0569
1328.7300   99.8326
1330.7700   137.0304
1332.8100   141.3710
1334.8600   138.2889
1336.9000   173.5671
1338.9400   247.4355
1340.9800   318.4220
1343.0200   311.3697
1345.0700   226.7236
1347.1100   166.7767
1349.1500   139.0676
1351.1900   130.5599
1353.2300   156.5227
1355.2700   189.0609
1357.3200   263.0986
1359.3600   347.3358
1361.4000   362.1372
1363.4400   359.7740
1365.4800   353.0761
1367.5300   363.9746
1369.5700   378.5438
1371.6100   362.7277
1373.6500   340.2520
1375.6900   314.7562
1377.7400   286.9920
1379.7800   305.2693
1381.8200   323.3254
1383.8600   313.6120
1385.9000   285.3646
1387.9500   259.5670
1389.9900   234.7734
1392.0300   242.0378
1394.0700   276.5771
1396.1100   261.9982
1398.1500   210.1560
1400.2000   175.5462
1402.2400   198.1726
1404.2800   229.4058
1406.3200   251.9358
1408.3600   274.7211
1410.4100   252.4693
1412.4500   214.2739
1414.4900   190.6775
1416.5300   178.4321
1418.5700   220.8675
1420.6200   280.7596
1422.6600   272.7313
1424.7000   180.0356
1426.7400   123.6132
1428.7800   140.1799
1430.8300   174.4033
1432.8700   204.7192
1434.9100   222.5251
1436.9500   225.9800
1438.9900   217.7265
1441.0300   195.8338
1443.0800   155.1684
1445.1200   126.3987
1447.1600   123.8626
1449.2000   128.6913
1451.2400   119.2041
1453.2900   111.3379
1455.3300   116.2956
1457.3700   126.2992
1459.4100   157.2426
1461.4500   164.6834
1463.5000   153.6247
1465.5400   145.4883
1467.5800   132.3045
1469.6200   127.6212
1471.6600   162.0952
1473.7100   203.7516
1475.7500   267.0530
1477.7900   287.4478
1479.8300   298.1509
1481.8700   288.0085
1483.9100   253.2244
1485.9600   261.5155
1488.0000   295.1570
1490.0400   333.7677
1492.0800   353.8205
1494.1200   347.4223
1496.1700   352.5950
1498.2100   347.9165
1500.2500   333.2998
1502.2900   334.4233
1504.3300   339.0474
1506.3800   361.6492
1508.4200   345.2258
1510.4600   302.1265
1512.5000   258.9880
1514.5400   234.6871
1516.5900   252.4701
1518.6300   289.0898
1520.6700   353.6499
1522.7100   393.7746
1524.7500   384.6625
1526.7900   386.9662
1528.8400   391.0844
1530.8800   368.7769
1532.9200   322.0991
1534.9600   250.1074
1537.0000   198.5280
1539.0500   181.3823
1541.0900   166.0406
1543.1300   151.7804
1545.1700   140.4622
1547.2100   148.0800
1549.2600   165.6530
1551.3000   185.0129
1553.3400   194.7491
1555.3800   207.8238
1557.4200   189.9815
1559.4700   166.9053
1561.5100   143.4535
1563.5500   71.4013
1565.5900   9.3649
1567.6300   12.9444
1569.6700   16.3230
1571.7200   -1.9463
1573.7600   -28.6602
1575.8000   -34.8169
1577.8400   -18.8812
1579.8800   2.1360
1581.9300   11.7892
1583.9700   28.2673
1586.0100   32.2466
1588.0500   -31.4939
1590.0900   -56.9622
1592.1400   34.9951
1594.1800   99.2797
1596.2200   65.6220
1598.2600   62.9833
1600.3000   61.8426
1602.3500   56.6841
1604.3900   23.0831
1606.4300   -45.3772
1608.4700   -79.1726
1610.5100   -102.3534
1612.5500   -126.3211
1614.6000   -117.8104
1616.6400   -70.7604
1618.6800   -4.7266
1620.7200   43.2857
1622.7600   53.3840
1624.8100   117.3585
1626.8500   179.0487
1628.8900   166.1420
1630.9300   129.0976
1632.9700   132.0983
1635.0200   130.2838
1637.0600   129.4182
1639.1000   109.4233
1641.1400   104.4218
1643.1800   100.8867
1645.2300   71.5500
1647.2700   42.6242
1649.3100   35.3773
1651.3500   35.4795
1653.3900   38.0576
1655.4300   63.1587
1657.4800   84.8431
1659.5200   54.5381
1661.5600   48.8215
1663.6000   116.7533
1665.6400   165.0199
1667.6900   143.6385
1669.7300   130.2506
1671.7700   204.5949
1673.8100   238.3931
1675.8500   116.7902
1677.9000   80.1595
1679.9400   194.4105
1681.9800   260.3529
1684.0200   236.0559
1686.0600   226.5862
1688.1100   249.6171
1690.1500   307.5085
1692.1900   354.2078
1694.2300   373.1336
1696.2700   390.4154
1698.3100   418.5482
1700.3600   473.5737
1702.4000   520.6625
1704.4400   513.2477
1706.4800   490.5162
1708.5200   434.4206
1710.5700   425.0736
1712.6100   461.6008
