#----------------------------------
# BOTDR
# DSTS: v.07.1
# Fri Oct 22 14:36:39 2021
#
# Channel No  = 0
# Partial   = 0
# Partial Start  = 0.00
# Partial End  = 4118.55
# Fibre Length    [m]   = 4118.55  0.00
# Fiber Delay    [m]   = 118.55
# Connection Point    [m]   = 198.64
# Rpt.period      [us]  = 65
# Pulse width     [ns]  = 40
# Frequency Start [MHz] = 10690.00
# Frequency End:  [MHz] = 10990.00
# Frequency Step: [MHz] = 5.00
# No.Averages:    [-]   = 12000
# Sampling Rate   [-]   = 0 (200.00MSs, spatial step = 0.50m)
# Input Range     [-]   = 2 (1V)
# Pulse Delay     [m]   = 100
# Post Pulse Data [m]   = 0
# Fiber Type      [-]   = CH4 Land
# Fiber  temperature [C] = 27.00
# Fiber  Bril Frequency  [MHz] = 10840.00
# Fiber  Strain Coefficient  [ue/MHz] = 18.9150
# Fiber Temperature Coefficient [C/MHz] = 0.9765
# Fiber Refractive Index = 1.4682
# Fiber Sigma = 0.2000
#
#----------------------------------
8074

-118.5500   0.0000
-118.0500   0.0000
-117.5500   0.0000
-117.0500   0.0000
-116.5500   0.0000
-116.0500   0.0000
-115.5500   0.0000
-115.0500   0.0000
-114.5500   0.0000
-114.0500   0.0000
-113.5500   0.0000
-113.0500   0.0000
-112.5500   0.0000
-112.0500   0.0000
-111.5500   0.0000
-111.0500   0.0000
-110.5500   0.0000
-110.0500   0.0000
-109.5500   0.0000
-109.0500   0.0000
-108.5500   0.0000
-108.0500   0.0000
-107.5500   0.0000
-107.0500   0.0000
-106.5500   0.0000
-106.0500   0.0000
-105.5500   0.0000
-105.0500   0.0000
-104.5500   0.0000
-104.0500   0.0000
-103.5500   0.0000
-103.0500   0.0000
-102.5500   0.0000
-102.0500   0.0000
-101.5500   0.0000
-101.0500   0.0000
-100.5500   0.0000
-100.0500   0.0000
-99.5500   0.0000
-99.0500   0.0000
-98.5500   0.0000
-98.0500   0.0000
-97.5500   0.0000
-97.0500   0.0000
-96.5500   0.0000
-96.0500   0.0000
-95.5500   0.0000
-95.0500   0.0000
-94.5500   0.0000
-94.0500   0.0000
-93.5500   0.0000
-93.0500   0.0000
-92.5500   0.0000
-92.0500   0.0000
-91.5500   0.0000
-91.0500   0.0000
-90.5500   0.0000
-90.0500   0.0000
-89.5500   0.0000
-89.0500   0.0000
-88.5500   0.0000
-88.0500   0.0000
-87.5500   0.0000
-87.0500   0.0000
-86.5500   0.0000
-86.0500   0.0000
-85.5500   0.0000
-85.0500   0.0000
-84.5500   0.0000
-84.0500   0.0000
-83.5500   0.0000
-83.0500   0.0000
-82.5500   0.0000
-82.0500   0.0000
-81.5500   0.0000
-81.0500   0.0000
-80.5500   0.0000
-80.0500   0.0000
-79.5500   0.0000
-79.0500   0.0000
-78.5500   0.0000
-78.0500   0.0000
-77.5500   0.0000
-77.0500   0.0000
-76.5500   0.0000
-76.0500   0.0000
-75.5500   0.0000
-75.0500   0.0000
-74.5500   0.0000
-74.0500   0.0000
-73.5500   0.0000
-73.0500   0.0000
-72.5500   0.0000
-72.0500   0.0000
-71.5500   0.0000
-71.0500   0.0000
-70.5500   0.0000
-70.0500   0.0000
-69.5500   0.0000
-69.0500   0.0000
-68.5500   0.0000
-68.0500   0.0000
-67.5500   0.0000
-67.0500   0.0000
-66.5500   0.0000
-66.0500   0.0000
-65.5500   0.0000
-65.0500   0.0000
-64.5500   0.0000
-64.0500   0.0000
-63.5500   0.0000
-63.0500   0.0000
-62.5500   0.0000
-62.0500   0.0000
-61.5500   0.0000
-61.0500   0.0000
-60.5500   0.0000
-60.0500   0.0000
-59.5500   0.0000
-59.0500   0.0000
-58.5500   0.0000
-58.0500   0.0000
-57.5500   0.0000
-57.0500   0.0000
-56.5500   0.0000
-56.0500   0.0000
-55.5500   0.0000
-55.0500   0.0000
-54.5500   0.0000
-54.0500   0.0000
-53.5500   0.0000
-53.0500   0.0000
-52.5500   0.0000
-52.0500   0.0000
-51.5500   0.0000
-51.0500   0.0000
-50.5500   0.0000
-50.0500   0.0000
-49.5500   0.0000
-49.0500   0.0000
-48.5500   0.0000
-48.0500   0.0000
-47.5500   0.0000
-47.0500   0.0000
-46.5500   0.0000
-46.0500   0.0000
-45.5500   0.0000
-45.0500   0.0000
-44.5500   0.0000
-44.0500   0.0000
-43.5500   0.0000
-43.0500   0.0000
-42.5500   0.0000
-42.0500   0.0000
-41.5500   0.0000
-41.0500   0.0000
-40.5500   0.0000
-40.0500   0.0000
-39.5500   0.0000
-39.0500   0.0000
-38.5500   0.0000
-38.0500   0.0000
-37.5500   0.0000
-37.0500   0.0000
-36.5500   0.0000
-36.0500   0.0000
-35.5500   0.0000
-35.0500   0.0000
-34.5500   0.0000
-34.0500   0.0000
-33.5500   0.0000
-33.0500   0.0000
-32.5500   0.0000
-32.0500   0.0000
-31.5500   0.0000
-31.0500   0.0000
-30.5500   0.0000
-30.0500   0.0000
-29.5500   0.0000
-29.0500   0.0000
-28.5500   0.0000
-28.0500   0.0000
-27.5500   0.0000
-27.0500   0.0000
-26.5500   0.0000
-26.0500   0.0000
-25.5500   0.0000
-25.0500   0.0000
-24.5500   0.0000
-24.0500   0.0000
-23.5500   0.0000
-23.0500   0.0000
-22.5500   0.0000
-22.0500   0.0000
-21.5500   0.0000
-21.0500   0.0000
-20.5500   0.0000
-20.0500   0.0000
-19.5500   0.0000
-19.0500   0.0000
-18.5500   0.0000
-18.0500   0.0000
-17.5500   0.0000
-17.0500   0.0000
-16.5500   0.0000
-16.0500   0.0000
-15.5500   0.0000
-15.0500   0.0000
-14.5500   0.0000
-14.0500   0.0000
-13.5500   0.0000
-13.0500   0.0000
-12.5500   0.0000
-12.0500   0.0000
-11.5500   0.0000
-11.0500   0.0000
-10.5500   0.0000
-10.0500   0.0000
-9.5500   0.0000
-9.0500   0.0000
-8.5500   0.0000
-8.0500   0.0000
-7.5500   0.0000
-7.0500   0.0000
-6.5500   0.0000
-6.0500   0.0000
-5.5500   0.0000
-5.0500   0.0000
-4.5500   0.0000
-4.0500   0.0000
-3.5500   0.0000
-3.0500   0.0000
-2.5500   0.0000
-2.0500   0.0000
-1.5500   0.0000
-1.0500   -3.7224
-0.5500   -2.4664
-0.0500   -6.0793
0.4600   -6.9605
0.9700   -11.1251
1.4800   -12.6481
1.9900   -14.3741
2.5000   -10.5406
3.0100   -6.6133
3.5200   7.0845
4.0300   10.1815
4.5400   6.9481
5.0500   -16.0921
5.5700   -20.1426
6.0800   -30.2523
6.5900   -24.8420
7.1000   -30.1333
7.6100   -22.7014
8.1200   -25.2875
8.6300   -17.5155
9.1400   -20.1361
9.6500   -14.3140
10.1600   -19.2374
10.6700   -15.7035
11.1800   -23.1555
11.6900   -20.8948
12.2000   -27.4205
12.7100   -22.8527
13.2200   -25.5795
13.7300   -20.1372
14.2400   -22.9227
14.7500   -18.0246
15.2600   -22.2343
15.7700   -18.0611
16.2900   -22.0351
16.8000   -18.0725
17.3100   -23.3257
17.8200   -19.8008
18.3300   -25.6414
18.8400   -21.6661
19.3500   -24.3994
19.8600   -17.1805
20.3700   -17.3048
20.8800   -8.5119
21.3900   -9.3524
21.9000   -4.0935
22.4100   -8.7640
22.9200   -7.3631
23.4300   -14.2541
23.9400   -11.8340
24.4500   -16.5947
24.9600   -11.2968
25.4700   -14.3495
25.9800   -9.5503
26.4900   -14.7253
27.0100   -13.2085
27.5200   -19.2941
28.0300   -18.1688
28.5400   -23.7477
29.0500   -17.8905
29.5600   -19.8445
30.0700   -11.8279
30.5800   -13.9296
31.0900   -8.4442
31.6000   -12.9989
32.1100   -9.5187
32.6200   -14.4637
33.1300   -11.1970
33.6400   -14.6944
34.1500   -9.8341
34.6600   -12.6960
35.1700   -6.6397
35.6800   -10.4214
36.1900   -6.1248
36.7000   -11.4434
37.2100   -8.6098
37.7300   -13.9900
38.2400   -11.1515
38.7500   -15.0089
39.2600   -10.6105
39.7700   -12.7222
40.2800   -7.8313
40.7900   -11.3840
41.3000   -8.5741
41.8100   -13.7311
42.3200   -12.2496
42.8300   -16.8780
43.3400   -14.3947
43.8500   -17.7748
44.3600   -11.3958
44.8700   -12.8057
45.3800   -6.0620
45.8900   -8.9699
46.4000   -4.8097
46.9100   -9.6129
47.4200   -7.7434
47.9300   -13.5833
48.4500   -12.0082
48.9600   -17.3935
49.4700   -15.5616
49.9800   -20.6530
50.4900   -18.0803
51.0000   -24.5755
51.5100   -22.4960
52.0200   -28.8709
52.5300   -26.8299
53.0400   -31.4126
53.5500   -28.4576
54.0600   -30.7060
54.5700   -24.3489
55.0800   -24.5482
55.5900   -15.5509
56.1000   -15.2692
56.6100   -7.3121
57.1200   -9.8146
57.6300   -5.9173
58.1400   -12.3428
58.6500   -11.3556
59.1700   -17.7253
59.6800   -16.7512
60.1900   -21.0554
60.7000   -16.5314
61.2100   -19.1461
61.7200   -14.2845
62.2300   -16.6124
62.7400   -12.6433
63.2500   -16.0542
63.7600   -11.7498
64.2700   -17.1193
64.7800   -14.7970
65.2900   -20.0491
65.8000   -16.6976
66.3100   -20.6191
66.8200   -17.5864
67.3300   -20.0500
67.8400   -15.0721
68.3500   -17.9355
68.8600   -12.3635
69.3700   -15.1234
69.8900   -7.8892
70.4000   -9.2711
70.9100   -1.4630
71.4200   -2.9703
71.9300   2.4878
72.4400   -1.4891
72.9500   1.5215
73.4600   -4.7722
73.9700   -3.1084
74.4800   -8.8099
74.9900   -6.8048
75.5000   -10.7846
76.0100   -6.9497
76.5200   -10.7102
77.0300   -8.9286
77.5400   -14.4261
78.0500   -11.9292
78.5600   -16.3760
79.0700   -12.0444
79.5800   -16.2017
80.0900   -13.5540
80.6100   -17.8179
81.1200   -15.3513
81.6300   -20.6862
82.1400   -16.9911
82.6500   -19.8179
83.1600   -13.5671
83.6700   -15.6474
84.1800   -11.4856
84.6900   -18.2085
85.2000   -21.8331
85.7100   -45.4398
86.2200   14.8441
86.7300   -16.6834
87.2400   -10.7230
87.7500   18.2385
88.2600   7.0363
88.7700   -7.8549
89.2800   -17.2338
89.7900   -36.0546
90.3000   -47.5327
90.8100   -80.1985
91.3300   -117.9071
91.8400   -223.4815
92.3500   -195.4702
92.8600   14.4070
93.3700   20.5155
93.8800   16.7000
94.3900   20.0533
94.9000   13.7827
95.4100   15.5791
95.9200   9.2786
96.4300   11.4139
96.9400   7.0464
97.4500   11.2869
97.9600   8.7331
98.4700   15.6846
98.9800   14.1524
99.4900   21.3104
100.0000   18.3511
100.5100   22.9099
101.0200   17.7472
101.5300   20.0216
102.0500   13.5751
102.5600   15.2641
103.0700   8.6965
103.5800   11.4575
104.0900   6.4929
104.6000   9.7918
105.1100   4.5260
105.6200   10.1014
106.1300   5.6530
106.6400   10.2656
107.1500   5.2195
107.6600   9.6989
108.1700   3.3540
108.6800   8.0054
109.1900   2.9541
109.7000   8.1607
110.2100   4.9032
110.7200   11.8203
111.2300   10.1723
111.7400   16.3774
112.2500   11.9350
112.7700   15.7109
113.2800   10.0292
113.7900   10.3619
114.3000   2.9354
114.8100   2.9887
115.3200   -3.4141
115.8300   0.8983
116.3400   -3.3112
116.8500   3.4564
117.3600   1.9999
117.8700   8.8649
118.3800   5.7555
118.8900   11.0845
119.4000   5.3898
119.9100   6.9253
120.4200   1.5103
120.9300   4.8414
121.4400   0.6704
121.9500   7.1617
122.4600   3.5849
122.9700   10.7852
123.4900   6.6819
124.0000   12.7212
124.5100   8.8999
125.0200   13.8927
125.5300   9.9468
126.0400   16.8065
126.5500   13.3505
127.0600   20.6021
127.5700   15.2021
128.0800   18.8900
128.5900   12.0350
129.1000   15.2623
129.6100   7.3719
130.1200   9.5239
130.6300   2.4988
131.1400   5.8170
131.6500   0.1201
132.1600   6.0651
132.6700   -0.4202
133.1800   3.6971
133.6900   -2.8974
134.2100   -0.6338
134.7200   -7.1100
135.2300   -3.0499
135.7400   -7.2941
136.2500   0.2916
136.7600   -0.9766
137.2700   8.7726
137.7800   7.5006
138.2900   16.4014
138.8000   14.2759
139.3100   20.2875
139.8200   15.0961
140.3300   18.8869
140.8400   13.6052
141.3500   18.0026
141.8600   13.0637
142.3700   18.3335
142.8800   13.4241
143.3900   18.7429
143.9000   14.6121
144.4100   20.1486
144.9300   14.7227
145.4400   20.8667
145.9500   14.3227
146.4600   19.1848
146.9700   12.1333
147.4800   16.0450
147.9900   9.1063
148.5000   12.0175
149.0100   5.3254
149.5200   9.0230
150.0300   2.9290
150.5400   4.6724
151.0500   -2.0520
151.5600   0.1701
152.0700   -8.6409
152.5800   -8.3159
153.0900   -16.2109
153.6000   -14.2507
154.1100   -20.2582
154.6200   -13.8378
155.1300   -15.5234
155.6500   -6.7287
156.1600   -8.0724
156.6700   1.1643
157.1800   -1.9157
157.6900   3.6445
158.2000   -2.7287
158.7100   0.3548
159.2200   -8.2024
159.7300   -5.7835
160.2400   -13.3527
160.7500   -8.2313
161.2600   -12.1767
161.7700   -6.8829
162.2800   -9.8263
162.7900   -3.2260
163.3000   -8.5621
163.8100   -4.4621
164.3200   -10.6181
164.8300   -6.5265
165.3400   -12.6416
165.8500   -10.5871
166.3700   -17.0138
166.8800   -12.7160
167.3900   -16.5668
167.9000   -12.3530
168.4100   -16.9979
168.9200   -13.5396
169.4300   -20.0889
169.9400   -17.5966
170.4500   -23.9245
170.9600   -20.0649
171.4700   -24.4828
171.9800   -17.5170
172.4900   -20.3661
173.0000   -15.0750
173.5100   -18.7318
174.0200   -15.0322
174.5300   -20.6896
175.0400   -16.7448
175.5500   -22.8253
176.0600   -18.2500
176.5700   -21.5604
177.0900   -16.4820
177.6000   -19.4265
178.1100   -12.8350
178.6200   -17.5825
179.1300   -11.0755
179.6400   -16.2005
180.1500   -11.6215
180.6600   -16.1684
181.1700   -10.7404
181.6800   -13.6868
182.1900   -6.5298
182.7000   -9.3486
183.2100   -2.5839
183.7200   -7.1532
184.2300   -3.2095
184.7400   -9.4729
185.2500   -6.8814
185.7600   -12.9469
186.2700   -9.5113
186.7800   -12.8015
187.2900   -5.8084
187.8100   -9.1271
188.3200   -3.1088
188.8300   -8.1004
189.3400   -4.6341
189.8500   -10.9768
190.3600   -8.4432
190.8700   -14.3802
191.3800   -10.7293
191.8900   -17.1286
192.4000   -13.7682
192.9100   -19.1282
193.4200   -14.8532
193.9300   -19.8763
194.4400   -15.2577
194.9500   -19.4193
195.4600   -13.7939
195.9700   -17.6007
196.4800   -11.5065
196.9900   -14.0938
197.5000   -8.3262
198.0100   -11.8888
198.5300   -5.6850
199.0400   -9.8289
199.5500   -4.7266
200.0600   -8.6967
200.5700   -4.2897
201.0800   -9.2271
201.5900   -6.5570
202.1000   -14.0044
202.6100   -11.4535
203.1200   -19.3925
203.6300   -16.2479
204.1400   -22.3172
204.6500   -18.2511
205.1600   -22.6075
205.6700   -16.1460
206.1800   -18.0648
206.6900   -11.3851
207.2000   -12.4700
207.7100   -4.8483
208.2200   -7.0963
208.7300   -2.3808
209.2500   -7.1096
209.7600   -3.7102
210.2700   -7.7391
210.7800   -2.9409
211.2900   -5.7102
211.8000   3.4043
212.3100   1.0092
212.8200   8.8673
213.3300   4.1765
213.8400   6.8512
214.3500   -1.6723
214.8600   -1.7141
215.3700   -9.7162
215.8800   -6.2282
216.3900   -10.5757
216.9000   -3.4509
217.4100   -5.2901
217.9200   2.9356
218.4300   0.1439
218.9400   7.1386
219.4500   1.7968
219.9700   7.6841
220.4800   2.8219
220.9900   7.5060
221.5000   2.9757
222.0100   7.2796
222.5200   2.3459
223.0300   6.1063
223.5400   -0.0455
224.0500   1.1346
224.5600   -5.3676
225.0700   -2.4126
225.5800   -8.9411
226.0900   -4.7658
226.6000   -8.8303
227.1100   -3.7434
227.6200   -7.8746
228.1300   -1.2966
228.6400   -5.0769
229.1500   1.6529
229.6600   -0.8736
230.1700   5.0960
230.6900   1.1797
231.2000   6.8202
231.7100   1.6962
232.2200   4.9048
232.7300   -2.2876
233.2400   -0.3218
233.7500   -6.0700
234.2600   -1.7375
234.7700   -6.5979
235.2800   -1.0697
235.7900   -6.0538
236.3000   -2.7532
236.8100   -9.4720
237.3200   -6.5574
237.8300   -11.0523
238.3400   -3.3603
238.8500   -4.2370
239.3600   4.5699
239.8700   2.4427
240.3800   8.7668
240.8900   4.6061
241.4100   9.2876
241.9200   2.8932
242.4300   7.1457
242.9400   0.8692
243.4500   4.2122
243.9600   -2.2356
244.4700   -0.2520
244.9800   -7.8430
245.4900   -5.6207
246.0000   -13.4399
246.5100   -11.4750
247.0200   -17.6532
247.5300   -12.7751
248.0400   -17.1637
248.5500   -10.8745
249.0600   -13.4399
249.5700   -8.1343
250.0800   -13.1661
250.5900   -9.2090
251.1000   -14.8808
251.6100   -9.6578
252.1300   -15.5808
252.6400   -12.5751
253.1500   -18.8288
253.6600   -15.9590
254.1700   -23.5744
254.6800   -21.7826
255.1900   -28.9128
255.7000   -23.3014
256.2100   -27.4814
256.7200   -19.0786
257.2300   -19.8095
257.7400   -9.6130
258.2500   -10.2169
258.7600   -0.4793
259.2700   -4.0528
259.7800   0.2315
260.2900   -7.1420
260.8000   -6.1309
261.3100   -14.7596
261.8200   -13.6557
262.3300   -20.0050
262.8500   -14.9591
263.3600   -19.0643
263.8700   -11.5059
264.3800   -15.5714
264.8900   -8.4759
265.4000   -12.3177
265.9100   -8.1039
266.4200   -12.2749
266.9300   -8.0351
267.4400   -12.0682
267.9500   -5.8081
268.4600   -9.4068
268.9700   -4.1849
269.4800   -7.7099
269.9900   -1.1107
270.5000   -5.7473
271.0100   0.3526
271.5200   -6.2204
272.0300   -5.1385
272.5400   -13.8173
273.0500   -13.6437
273.5700   -22.7248
274.0800   -21.2140
274.5900   -25.3154
275.1000   -17.9705
275.6100   -19.6818
276.1200   -10.6711
276.6300   -11.3239
277.1400   -3.4472
277.6500   -7.6850
278.1600   -3.6553
278.6700   -10.0922
279.1800   -7.7510
279.6900   -12.9908
280.2000   -9.0136
280.7100   -14.3438
281.2200   -10.3166
281.7300   -14.2134
282.2400   -10.9006
282.7500   -14.1344
283.2600   -8.0059
283.7700   -12.3601
284.2900   -5.6066
284.8000   -9.9064
285.3100   -3.2666
285.8200   -6.1654
286.3300   1.0561
286.8400   -1.0346
287.3500   5.6283
287.8600   0.1668
288.3700   6.0644
288.8800   0.0269
289.3900   3.9768
289.9000   -1.8599
290.4100   2.4738
290.9200   -2.6711
291.4300   0.7292
291.9400   -3.2057
292.4500   2.4480
292.9600   -0.2852
293.4700   4.9958
293.9800   0.9920
294.4900   6.2624
295.0100   2.6603
295.5200   7.4020
296.0300   3.7049
296.5400   9.4528
297.0500   4.4163
297.5600   8.4293
298.0700   2.8261
298.5800   7.3574
299.0900   1.0463
299.6000   5.5399
300.1100   0.7402
300.6200   3.7062
301.1300   -1.1431
301.6400   2.1192
302.1500   -3.3208
302.6600   -0.1243
303.1700   -5.4007
303.6800   -0.5352
304.1900   -6.2687
304.7000   0.3224
305.2100   -3.5119
305.7300   1.7786
306.2400   -1.2084
306.7500   4.3296
307.2600   -0.2709
307.7700   3.4032
308.2800   -3.0173
308.7900   -0.5262
309.3000   -6.3541
309.8100   -2.4643
310.3200   -7.3866
310.8300   0.3262
311.3400   -1.4829
311.8500   6.3302
312.3600   3.2257
312.8700   7.8212
313.3800   0.8893
313.8900   2.2439
314.4000   -5.4464
314.9100   -4.0762
315.4200   -10.4961
315.9300   -5.2460
316.4500   -8.9666
316.9600   -1.7074
317.4700   -4.6904
317.9800   2.3523
318.4900   -2.0418
319.0000   1.0866
319.5100   -6.1246
320.0200   -4.1337
320.5300   -12.2748
321.0400   -10.2813
321.5500   -16.4286
322.0600   -13.1968
322.5700   -16.9756
323.0800   -9.8291
323.5900   -13.0219
324.1000   -6.2302
324.6100   -9.2267
325.1200   -4.3725
325.6300   -8.2193
326.1400   -1.8781
326.6500   -3.2916
327.1700   5.4027
327.6800   4.1672
328.1900   12.0031
328.7000   6.8456
329.2100   10.3100
329.7200   1.8907
330.2300   1.0471
330.7400   -8.1924
331.2500   -8.3885
331.7600   -15.7974
332.2700   -12.0624
332.7800   -15.1053
333.2900   -8.3886
333.8000   -9.9899
334.3100   -1.6500
334.8200   -5.2106
335.3300   -0.2486
335.8400   -5.0886
336.3500   0.8086
336.8600   -2.9494
337.3700   3.1820
337.8900   -1.6239
338.4000   3.0456
338.9100   -1.7617
339.4200   4.2516
339.9300   1.3079
340.4400   10.4086
340.9500   9.0107
341.4600   16.6109
341.9700   11.4523
342.4800   13.8533
342.9900   5.7195
343.5000   7.2934
344.0100   -0.2016
344.5200   4.7645
345.0300   -0.0900
345.5400   5.4921
346.0500   0.8199
346.5600   5.4230
347.0700   -0.6200
347.5800   2.9195
348.0900   -3.6792
348.6100   0.9870
349.1200   -1.7522
349.6300   5.6399
350.1400   4.7206
350.6500   12.9993
351.1600   10.7003
351.6700   16.0293
352.1800   10.6908
352.6900   14.9312
353.2000   7.8418
353.7100   10.3432
354.2200   4.3466
354.7300   9.2633
355.2400   5.9946
355.7500   11.7238
356.2600   7.3982
356.7700   14.1864
357.2800   8.3924
357.7900   10.3719
358.3000   2.9575
358.8100   5.4915
359.3300   -0.9425
359.8400   1.7994
360.3500   -3.5746
360.8600   -0.6203
361.3700   -6.4424
361.8800   -1.9936
362.3900   -6.3750
362.9000   0.3599
363.4100   -1.7688
363.9200   7.1771
364.4300   4.5924
364.9400   11.8799
365.4500   6.8227
365.9600   10.1469
366.4700   3.0690
366.9800   4.3889
367.4900   -3.7824
368.0000   -2.9688
368.5100   -9.9353
369.0200   -6.1759
369.5300   -10.7541
370.0500   -5.1253
370.5600   -10.2592
371.0700   -5.4794
371.5800   -12.0559
372.0900   -7.5310
