#----------------------------------
# BOTDR
# DSTS: v.07.1
# Fri Oct 22 13:48:49 2021
#
# Channel No  = 0
# Partial   = 0
# Partial Start  = 0.00
# Partial End  = 5118.55
# Fibre Length    [m]   = 5118.55  0.00
# Fiber Delay    [m]   = 118.55
# Connection Point    [m]   = 198.64
# Rpt.period      [us]  = 65
# Pulse width     [ns]  = 40
# Frequency Start [MHz] = 10690.00
# Frequency End:  [MHz] = 10990.00
# Frequency Step: [MHz] = 5.00
# No.Averages:    [-]   = 12000
# Sampling Rate   [-]   = 2 (50.00MSs, spatial step = 2.00m)
# Input Range     [-]   = 2 (1V)
# Pulse Delay     [m]   = 100
# Post Pulse Data [m]   = 0
# Fiber Type      [-]   = CH4 Land
# Fiber  temperature [C] = 27.00
# Fiber  Bril Frequency  [MHz] = 10840.00
# Fiber  Strain Coefficient  [ue/MHz] = 18.9150
# Fiber Temperature Coefficient [C/MHz] = 0.9765
# Fiber Refractive Index = 1.4682
# Fiber Sigma = 0.2000
#
#----------------------------------
2509

-118.5500   0.0000
-116.5500   0.0000
-114.5500   0.0000
-112.5500   0.0000
-110.5500   0.0000
-108.5500   0.0000
-106.5500   0.0000
-104.5500   0.0000
-102.5500   0.0000
-100.5500   0.0000
-98.5500   0.0000
-96.5500   0.0000
-94.5500   0.0000
-92.5500   0.0000
-90.5500   0.0000
-88.5500   0.0000
-86.5500   0.0000
-84.5500   0.0000
-82.5500   0.0000
-80.5500   0.0000
-78.5500   0.0000
-76.5500   0.0000
-74.5500   0.0000
-72.5500   0.0000
-70.5500   0.0000
-68.5500   0.0000
-66.5500   0.0000
-64.5500   0.0000
-62.5500   0.0000
-60.5500   0.0000
-58.5500   0.0000
-56.5500   0.0000
-54.5500   0.0000
-52.5500   0.0000
-50.5500   0.0000
-48.5500   0.0000
-46.5500   0.0000
-44.5500   0.0000
-42.5500   0.0000
-40.5500   0.0000
-38.5500   0.0000
-36.5500   0.0000
-34.5500   0.0000
-32.5500   0.0000
-30.5500   0.0000
-28.5500   0.0000
-26.5500   0.0000
-24.5500   0.0000
-22.5500   0.0000
-20.5500   0.0000
-18.5500   0.0000
-16.5500   0.0000
-14.5500   0.0000
-12.5500   0.0000
-10.5500   0.0000
-8.5500   0.0000
-6.5500   0.0000
-4.5500   0.0000
-2.5500   -95.5674
-0.5500   -56.5317
1.4900   101.8507
3.5300   888.6392
5.5800   1648.6620
7.6200   685.7120
9.6600   620.1113
11.7000   621.8853
13.7400   668.4909
15.7900   680.3685
17.8300   675.9087
19.8700   672.6733
21.9100   673.9779
23.9500   674.2117
25.9900   668.2984
28.0400   677.0065
30.0800   690.4344
32.1200   692.6605
34.1600   688.1773
36.2000   688.0337
38.2500   694.1750
40.2900   688.3626
42.3300   672.3808
44.3700   656.9443
46.4100   645.4672
48.4600   629.5407
50.5000   622.5424
52.5400   628.0177
54.5800   623.0347
56.6200   639.1811
58.6700   614.4290
60.7100   573.1095
62.7500   544.8266
64.7900   547.7497
66.8300   580.5022
68.8700   611.3386
70.9200   612.3686
72.9600   606.4916
75.0000   612.4803
77.0400   612.1367
79.0800   607.7091
81.1300   601.6877
83.1700   559.8964
85.2100   -25.2921
87.2500   -946.1002
89.2900   -1021.0758
91.3400   -365.3154
93.3800   17.5269
95.4200   28.1719
97.4600   38.7158
99.5000   50.0892
101.5500   46.1262
103.5900   42.2164
105.6300   37.6628
107.6700   38.6763
109.7100   37.0403
111.7500   34.2628
113.8000   40.1430
115.8400   49.2209
117.8800   66.6871
119.9200   84.6510
121.9600   90.9848
124.0100   90.9591
126.0500   90.1532
128.0900   95.7990
130.1300   104.7087
132.1700   110.4527
134.2200   113.1743
136.2600   114.7732
138.3000   121.1688
140.3400   108.8578
142.3800   104.4409
144.4300   154.2280
146.4700   186.5250
148.5100   185.6070
150.5500   178.7315
152.5900   173.3323
154.6300   173.2537
156.6800   150.8159
158.7200   144.1160
160.7600   191.5125
162.8000   212.8728
164.8400   179.5950
166.8900   136.9777
168.9300   145.9451
170.9700   192.8044
173.0100   270.1052
175.0500   315.1302
177.1000   322.0727
179.1400   280.2737
181.1800   238.6422
183.2200   237.8949
185.2600   266.4801
187.3100   279.6506
189.3500   267.5535
191.3900   277.4784
193.4300   289.2466
195.4700   251.2539
197.5100   204.1580
199.5600   198.2116
201.6000   223.8021
203.6400   269.6046
205.6800   263.4908
207.7200   232.7240
209.7700   216.0173
211.8100   220.8668
213.8500   226.9949
215.8900   225.8010
217.9300   240.1640
219.9800   240.8823
222.0200   226.1798
224.0600   228.1916
226.1000   242.4842
228.1400   242.6093
230.1900   220.0261
232.2300   204.8458
234.2700   193.3219
236.3100   190.2976
238.3500   205.4720
240.3900   206.8014
242.4400   187.6208
244.4800   145.8040
246.5200   102.9339
248.5600   97.0617
250.6000   127.7345
252.6500   182.7641
254.6900   193.7996
256.7300   155.2327
258.7700   140.6979
260.8100   150.9376
262.8600   163.6308
264.9000   184.5003
266.9400   196.8597
268.9800   202.2031
271.0200   211.1740
273.0700   234.5515
275.1100   266.2744
277.1500   303.7559
279.1900   320.3363
281.2300   320.9857
283.2700   317.3608
285.3200   310.4071
287.3600   296.6270
289.4000   274.5057
291.4400   268.1960
293.4800   274.2235
295.5300   265.8518
297.5700   260.6336
299.6100   264.1775
301.6500   277.5340
303.6900   287.7961
305.7400   290.8914
307.7800   294.6934
309.8200   288.8131
311.8600   273.2619
313.9000   269.8371
315.9500   272.4481
317.9900   282.5112
320.0300   293.7890
322.0700   298.6745
324.1100   295.1773
326.1500   298.3605
328.2000   301.0617
330.2400   310.2956
332.2800   319.3456
334.3200   328.9058
336.3600   321.4785
338.4100   319.6459
340.4500   332.3629
342.4900   346.8430
344.5300   362.0712
346.5700   366.3821
348.6200   363.2032
350.6600   349.8072
352.7000   341.4078
354.7400   352.6462
356.7800   365.9601
358.8300   376.4533
360.8700   359.9342
362.9100   334.0538
364.9500   321.0637
366.9900   305.3029
369.0300   298.6332
371.0800   298.9801
373.1200   288.6443
375.1600   295.7383
377.2000   292.2284
379.2400   266.2936
381.2900   238.5534
383.3300   224.6251
385.3700   217.3124
387.4100   221.0368
389.4500   227.3787
391.5000   232.1320
393.5400   232.7294
395.5800   237.8137
397.6200   239.3978
399.6600   243.8704
401.7100   245.2561
403.7500   253.8094
405.7900   267.1443
407.8300   272.2882
409.8700   280.5995
411.9100   278.2399
413.9600   271.7865
416.0000   268.5538
418.0400   266.4443
420.0800   269.3678
422.1200   264.6276
424.1700   260.3094
426.2100   266.0125
428.2500   265.6896
430.2900   261.8418
432.3300   262.4457
434.3800   272.2474
436.4200   268.5144
438.4600   278.9857
440.5000   306.3397
442.5400   349.1471
444.5900   377.7265
446.6300   395.9033
448.6700   399.3634
450.7100   409.2827
452.7500   406.6234
454.7900   404.7652
456.8400   411.3802
458.8800   402.9946
460.9200   379.1275
462.9600   358.6063
465.0000   358.6237
467.0500   354.2033
469.0900   309.4919
471.1300   162.9712
473.1700   26.9963
475.2100   4.5825
477.2600   -8.6491
479.3000   -41.2468
481.3400   -52.3000
483.3800   -48.0492
485.4200   -32.4920
487.4700   -24.0679
489.5100   -31.6313
491.5500   -47.7000
493.5900   -82.8090
495.6300   -124.5174
497.6700   -137.1549
499.7200   -144.0544
501.7600   -156.2394
503.8000   -177.7207
505.8400   -173.1264
507.8800   -167.8321
509.9300   -173.8858
511.9700   -180.6539
514.0100   -187.9225
516.0500   -188.6745
518.0900   -187.9375
520.1400   -177.0161
522.1800   -177.7315
524.2200   -172.5166
526.2600   -162.4462
528.3000   -179.8341
530.3500   -220.5927
532.3900   -234.1330
534.4300   -254.9093
536.4700   -282.8564
538.5100   -286.7514
540.5500   -269.5214
542.6000   -286.8445
544.6400   -300.1016
546.6800   -301.2890
548.7200   -310.6932
550.7600   -302.7066
552.8100   -246.9655
554.8500   -93.6841
556.8900   93.0300
558.9300   170.3855
560.9700   164.8362
563.0200   125.1876
565.0600   99.7130
567.1000   78.7090
569.1400   90.4670
571.1800   99.4766
573.2300   81.8572
575.2700   78.2055
577.3100   95.5477
579.3500   137.6055
581.3900   197.5854
583.4300   234.0767
585.4800   219.5806
587.5200   200.1747
589.5600   236.7381
591.6000   289.1522
593.6400   272.9119
595.6900   257.4280
597.7300   279.3106
599.7700   293.5492
601.8100   264.4006
603.8500   218.8348
605.9000   197.2586
607.9400   199.7854
609.9800   198.7214
612.0200   198.7711
614.0600   206.3951
616.1100   187.3303
618.1500   135.8548
620.1900   89.7321
622.2300   76.3665
624.2700   97.3659
626.3100   127.4387
628.3600   152.9188
630.4000   180.3198
632.4400   198.6235
634.4800   208.6580
636.5200   195.8116
638.5700   181.7397
640.6100   176.9154
642.6500   180.7437
644.6900   185.2999
646.7300   170.2944
648.7800   146.3774
650.8200   150.5863
652.8600   159.9839
654.9000   139.5452
656.9400   125.9125
658.9900   136.2313
661.0300   156.9813
663.0700   194.3521
665.1100   229.1393
667.1500   222.4928
669.1900   209.3451
671.2400   217.6454
673.2800   223.4422
675.3200   239.2427
677.3600   235.4816
679.4000   234.3370
681.4500   260.5126
683.4900   266.5259
685.5300   262.7653
687.5700   258.9697
689.6100   265.8237
691.6600   284.3806
693.7000   297.9549
695.7400   303.5004
697.7800   269.9175
699.8200   275.6329
701.8700   342.0894
703.9100   402.4233
705.9500   430.4531
707.9900   461.2309
710.0300   485.2357
712.0700   481.8615
714.1200   478.6395
716.1600   467.3664
718.2000   449.4968
720.2400   437.1844
722.2800   430.9502
724.3300   426.3227
726.3700   418.1507
728.4100   392.1144
730.4500   379.9330
732.4900   383.2349
734.5400   387.2666
736.5800   398.2956
738.6200   413.5616
740.6600   408.7878
742.7000   406.2424
744.7500   406.2876
746.7900   407.4826
748.8300   399.3727
750.8700   392.5994
752.9100   390.2934
754.9500   394.4871
757.0000   407.0545
759.0400   395.9918
761.0800   382.2114
763.1200   388.7946
765.1600   392.0870
767.2100   388.2367
769.2500   384.0162
771.2900   380.3105
773.3300   359.6624
775.3700   331.9216
777.4200   306.6192
779.4600   301.4869
781.5000   304.6626
783.5400   303.8790
785.5800   301.0181
787.6300   309.3652
789.6700   296.0633
791.7100   285.7151
793.7500   286.3831
795.7900   287.4999
797.8300   254.6928
799.8800   230.6045
801.9200   268.1853
803.9600   304.4039
806.0000   305.7615
808.0400   313.7935
810.0900   314.7063
812.1300   302.8593
814.1700   301.5733
816.2100   316.2897
818.2500   330.5592
820.3000   337.0434
822.3400   334.3572
824.3800   321.9785
826.4200   319.1877
828.4600   337.0925
830.5100   341.3400
832.5500   335.6350
834.5900   329.9945
836.6300   328.3955
838.6700   315.1864
840.7100   286.0277
842.7600   283.7041
844.8000   311.8878
846.8400   320.8540
848.8800   327.2897
850.9200   316.7557
852.9700   291.7130
855.0100   300.9613
857.0500   318.9094
859.0900   288.8801
861.1300   266.7055
863.1800   256.2164
865.2200   244.7557
867.2600   252.3531
869.3000   277.3553
871.3400   293.4597
873.3900   288.3197
875.4300   265.6353
877.4700   251.1661
879.5100   284.4744
881.5500   313.7958
883.5900   273.1918
885.6400   236.7984
887.6800   214.2528
889.7200   224.3611
891.7600   252.0118
893.8000   273.7466
895.8500   310.6076
897.8900   345.9600
899.9300   340.6091
901.9700   301.3741
904.0100   287.3845
906.0600   310.4973
908.1000   324.7283
910.1400   307.1669
912.1800   250.6672
914.2200   175.5856
916.2700   134.6970
918.3100   145.5148
920.3500   161.6803
922.3900   164.4104
924.4300   158.7966
926.4700   185.0754
928.5200   217.1212
930.5600   192.3856
932.6000   157.9645
934.6400   155.3516
936.6800   156.6545
938.7300   152.9801
940.7700   143.2722
942.8100   155.7965
944.8500   160.5899
946.8900   162.5503
948.9400   174.7268
950.9800   215.6873
953.0200   248.4100
955.0600   217.6507
957.1000   166.0935
959.1500   139.0787
961.1900   129.4105
963.2300   122.5099
965.2700   138.3939
967.3100   220.4444
969.3500   346.1233
971.4000   420.4254
973.4400   437.2588
975.4800   424.5968
977.5200   367.1264
979.5600   275.3063
981.6100   225.5139
983.6500   193.3269
985.6900   174.3988
987.7300   154.9514
989.7700   164.8685
991.8200   191.5151
993.8600   197.6024
995.9000   181.7503
997.9400   173.3603
999.9800   189.0314
1002.0300   183.2028
1004.0700   119.9248
1006.1100   89.7835
1008.1500   79.2892
1010.1900   68.8210
1012.2300   53.3522
1014.2800   69.5849
1016.3200   106.2232
1018.3600   128.0715
1020.4000   146.5098
1022.4400   167.8746
1024.4900   209.6723
1026.5300   231.0328
1028.5700   189.6413
1030.6100   182.4829
1032.6500   190.5159
1034.7000   175.3441
1036.7400   164.4191
1038.7800   190.8842
1040.8200   217.2049
1042.8600   223.1545
1044.9100   232.8539
1046.9500   240.3772
1048.9900   263.6663
1051.0300   247.1045
1053.0700   181.5735
1055.1100   140.5972
1057.1600   81.0478
1059.2000   39.7767
1061.2400   28.7440
1063.2800   31.2137
1065.3200   51.3026
1067.3700   81.0644
1069.4100   111.5432
1071.4500   137.9698
1073.4900   188.3262
1075.5300   197.1140
1077.5800   179.7320
1079.6200   192.1688
1081.6600   199.9062
1083.7000   169.0693
1085.7400   143.2146
1087.7900   158.6149
1089.8300   183.6301
1091.8700   199.5940
1093.9100   212.9480
1095.9500   223.8721
1097.9900   256.5723
1100.0400   245.1712
1102.0800   223.3293
1104.1200   193.7129
1106.1600   181.6442
1108.2000   156.5521
1110.2500   146.3058
1112.2900   180.3835
1114.3300   187.5977
1116.3700   176.0275
1118.4100   175.8913
1120.4600   185.4105
1122.5000   197.3115
1124.5400   163.9663
1126.5800   132.6438
1128.6200   91.7001
1130.6700   54.2922
1132.7100   52.5852
1134.7500   97.6237
1136.7900   161.7335
1138.8300   181.1325
1140.8700   184.0536
1142.9200   213.3106
1144.9600   264.9896
1147.0000   288.5916
1149.0400   248.6693
1151.0800   206.7874
1153.1300   186.3277
1155.1700   175.8618
1157.2100   152.1774
1159.2500   147.0108
1161.2900   186.2480
1163.3400   204.5749
1165.3800   197.4844
1167.4200   227.6745
1169.4600   283.3019
1171.5000   293.9153
1173.5500   269.8700
1175.5900   257.2811
1177.6300   237.5407
1179.6700   214.1206
1181.7100   177.0366
1183.7500   183.8285
1185.8000   228.5853
1187.8400   243.4982
1189.8800   253.8349
1191.9200   273.1721
1193.9600   323.8527
1196.0100   331.7803
1198.0500   291.2032
1200.0900   277.1866
1202.1300   263.0240
1204.1700   216.8596
1206.2200   170.3204
1208.2600   186.4382
1210.3000   218.6223
1212.3400   236.8703
1214.3800   240.8263
1216.4300   247.1505
1218.4700   286.2017
1220.5100   288.7862
1222.5500   249.9535
1224.5900   238.2313
1226.6300   226.3467
1228.6800   185.7792
1230.7200   158.2904
1232.7600   177.2250
1234.8000   197.5322
1236.8400   199.3792
1238.8900   211.0858
1240.9300   249.0547
1242.9700   309.5770
1245.0100   307.4424
1247.0500   259.3218
1249.1000   220.4206
1251.1400   189.1761
1253.1800   162.1975
1255.2200   176.8530
1257.2600   234.0663
1259.3100   239.6048
1261.3500   223.9402
1263.3900   219.7150
1265.4300   238.8870
1267.4700   276.7184
1269.5100   238.0942
1271.5600   184.0135
1273.6000   161.6171
1275.6400   150.2503
1277.6800   124.8454
1279.7200   122.6975
1281.7700   174.9132
1283.8100   195.8984
1285.8500   205.9318
1287.8900   216.4136
1289.9300   240.6199
1291.9800   276.8421
1294.0200   267.9889
1296.0600   224.2001
1298.1000   198.6420
1300.1400   184.8013
1302.1900   173.0390
1304.2300   188.5432
1306.2700   223.0782
1308.3100   237.9609
1310.3500   237.7791
1312.3900   229.7430
1314.4400   240.1094
1316.4800   285.4287
1318.5200   266.4276
1320.5600   245.6483
1322.6000   247.4192
1324.6500   216.9465
1326.6900   152.9978
1328.7300   140.1813
1330.7700   173.8239
1332.8100   193.8421
1334.8600   217.1161
1336.9000   262.5624
1338.9400   325.7946
1340.9800   387.9134
1343.0200   380.2049
1345.0700   308.1732
1347.1100   249.8201
1349.1500   205.7797
1351.1900   167.8406
1353.2300   177.6676
1355.2700   228.5492
1357.3200   316.3956
1359.3600   398.9936
1361.4000   409.3840
1363.4400   414.2277
1365.4800   421.0038
1367.5300   432.2204
1369.5700   441.0806
1371.6100   420.2491
1373.6500   373.0764
1375.6900   319.4533
1377.7400   287.4978
1379.7800   315.0859
1381.8200   370.5620
1383.8600   386.8027
1385.9000   375.2875
1387.9500   346.8693
1389.9900   314.1906
1392.0300   320.4850
1394.0700   313.1124
1396.1100   275.5058
1398.1500   239.7431
1400.2000   209.0385
1402.2400   247.8619
1404.2800   295.3247
1406.3200   318.3703
1408.3600   333.5307
1410.4100   312.9613
1412.4500   286.0251
1414.4900   264.6893
1416.5300   243.6823
1418.5700   286.8951
1420.6200   355.4643
1422.6600   345.7337
1424.7000   237.4417
1426.7400   163.4601
1428.7800   185.1250
1430.8300   221.9093
1432.8700   253.2632
1434.9100   281.2677
1436.9500   278.9754
1438.9900   274.0223
1441.0300   248.1736
1443.0800   203.9930
1445.1200   161.9401
1447.1600   154.6914
1449.2000   161.9026
1451.2400   139.2655
1453.2900   120.4354
1455.3300   121.5487
1457.3700   138.1547
1459.4100   170.4625
1461.4500   186.2283
1463.5000   169.4567
1465.5400   162.3014
1467.5800   161.9035
1469.6200   166.4940
1471.6600   216.1764
1473.7100   260.6158
1475.7500   303.7392
1477.7900   321.7966
1479.8300   342.1004
1481.8700   335.0877
1483.9100   301.2358
1485.9600   288.5994
1488.0000   294.4196
1490.0400   328.0667
1492.0800   364.0722
1494.1200   373.6646
1496.1700   381.9555
1498.2100   379.1470
1500.2500   368.9745
1502.2900   362.7414
1504.3300   374.7911
1506.3800   393.3873
1508.4200   370.7614
1510.4600   330.9535
1512.5000   300.2194
1514.5400   285.7234
1516.5900   326.2154
1518.6300   364.1112
1520.6700   377.3907
1522.7100   400.9001
1524.7500   441.6800
1526.7900   465.5828
1528.8400   466.1195
1530.8800   436.2063
1532.9200   373.6622
1534.9600   304.9771
1537.0000   250.2623
1539.0500   239.6493
1541.0900   235.5379
1543.1300   219.1196
1545.1700   219.0793
1547.2100   239.5612
1549.2600   255.7143
1551.3000   253.3723
1553.3400   262.7594
1555.3800   285.4002
1557.4200   270.0344
1559.4700   243.6875
1561.5100   197.5104
1563.5500   103.6561
1565.5900   34.8787
1567.6300   37.5848
1569.6700   27.8348
1571.7200   -7.1949
1573.7600   -33.5027
1575.8000   -34.0596
1577.8400   -14.5706
1579.8800   9.0694
1581.9300   33.0851
1583.9700   52.8034
1586.0100   50.1283
1588.0500   -16.9000
1590.0900   -47.8050
1592.1400   36.6715
1594.1800   92.5448
1596.2200   69.7567
1598.2600   72.1243
1600.3000   63.2306
1602.3500   57.2039
1604.3900   17.1756
1606.4300   -52.6487
1608.4700   -74.8887
1610.5100   -95.9362
1612.5500   -122.3105
1614.6000   -107.3918
1616.6400   -67.9471
1618.6800   -9.8358
1620.7200   32.7794
1622.7600   46.4080
1624.8100   117.7346
1626.8500   184.3924
1628.8900   178.4871
1630.9300   144.5206
1632.9700   134.1651
1635.0200   125.9863
1637.0600   132.2945
1639.1000   121.1100
1641.1400   115.5253
1643.1800   104.9450
1645.2300   69.8472
1647.2700   34.9296
1649.3100   13.9882
1651.3500   12.3437
1653.3900   20.8282
1655.4300   34.6199
1657.4800   60.2847
1659.5200   45.1693
1661.5600   35.8608
1663.6000   102.5240
1665.6400   149.7124
1667.6900   130.5295
1669.7300   132.8253
1671.7700   206.6943
1673.8100   230.6652
1675.8500   101.0881
1677.9000   70.0734
1679.9400   190.1823
1681.9800   260.3672
1684.0200   233.7186
1686.0600   219.1201
1688.1100   240.0115
1690.1500   300.4358
1692.1900   352.6238
1694.2300   373.1405
1696.2700   394.2607
1698.3100   407.9229
1700.3600   459.6914
1702.4000   513.2729
1704.4400   504.5843
1706.4800   476.0685
1708.5200   425.4504
1710.5700   415.9230
1712.6100   448.0301
