#----------------------------------
# BOTDR
# DSTS: v.07.1
# Fri Oct 22 14:25:17 2021
#
# Channel No  = 0
# Partial   = 0
# Partial Start  = 0.00
# Partial End  = 3112.57
# Fibre Length    [m]   = 3112.57  0.00
# Fiber Delay    [m]   = 112.57
# Connection Point    [m]   = 192.66
# Rpt.period      [us]  = 65
# Pulse width     [ns]  = 30
# Frequency Start [MHz] = 10690.00
# Frequency End:  [MHz] = 10990.00
# Frequency Step: [MHz] = 5.00
# No.Averages:    [-]   = 12000
# Sampling Rate   [-]   = 0 (200.00MSs, spatial step = 0.50m)
# Input Range     [-]   = 2 (1V)
# Pulse Delay     [m]   = 100
# Post Pulse Data [m]   = 0
# Fiber Type      [-]   = CH4 Land
# Fiber  temperature [C] = 27.00
# Fiber  Bril Frequency  [MHz] = 10840.00
# Fiber  Strain Coefficient  [ue/MHz] = 18.9150
# Fiber Temperature Coefficient [C/MHz] = 0.9765
# Fiber Refractive Index = 1.4682
# Fiber Sigma = 0.2000
#
#----------------------------------
6104

-112.5700   10840.0000
-112.0700   10840.0000
-111.5700   10840.0000
-111.0700   10840.0000
-110.5700   10840.0000
-110.0700   10840.0000
-109.5700   10840.0000
-109.0700   10840.0000
-108.5700   10840.0000
-108.0700   10840.0000
-107.5700   10840.0000
-107.0700   10840.0000
-106.5700   10840.0000
-106.0700   10840.0000
-105.5700   10840.0000
-105.0700   10840.0000
-104.5700   10840.0000
-104.0700   10840.0000
-103.5700   10840.0000
-103.0700   10840.0000
-102.5700   10840.0000
-102.0700   10840.0000
-101.5700   10840.0000
-101.0700   10840.0000
-100.5700   10840.0000
-100.0700   10840.0000
-99.5700   10840.0000
-99.0700   10840.0000
-98.5700   10840.0000
-98.0700   10840.0000
-97.5700   10840.0000
-97.0700   10840.0000
-96.5700   10840.0000
-96.0700   10840.0000
-95.5700   10840.0000
-95.0700   10840.0000
-94.5700   10840.0000
-94.0700   10840.0000
-93.5700   10840.0000
-93.0700   10840.0000
-92.5700   10840.0000
-92.0700   10840.0000
-91.5700   10840.0000
-91.0700   10840.0000
-90.5700   10840.0000
-90.0700   10840.0000
-89.5700   10840.0000
-89.0700   10840.0000
-88.5700   10840.0000
-88.0700   10840.0000
-87.5700   10840.0000
-87.0700   10840.0000
-86.5700   10840.0000
-86.0700   10840.0000
-85.5700   10840.0000
-85.0700   10840.0000
-84.5700   10840.0000
-84.0700   10840.0000
-83.5700   10840.0000
-83.0700   10840.0000
-82.5700   10840.0000
-82.0700   10840.0000
-81.5700   10840.0000
-81.0700   10840.0000
-80.5700   10840.0000
-80.0700   10840.0000
-79.5700   10840.0000
-79.0700   10840.0000
-78.5700   10840.0000
-78.0700   10840.0000
-77.5700   10840.0000
-77.0700   10840.0000
-76.5700   10840.0000
-76.0700   10840.0000
-75.5700   10840.0000
-75.0700   10840.0000
-74.5700   10840.0000
-74.0700   10840.0000
-73.5700   10840.0000
-73.0700   10840.0000
-72.5700   10840.0000
-72.0700   10840.0000
-71.5700   10840.0000
-71.0700   10840.0000
-70.5700   10840.0000
-70.0700   10840.0000
-69.5700   10840.0000
-69.0700   10840.0000
-68.5700   10840.0000
-68.0700   10840.0000
-67.5700   10840.0000
-67.0700   10840.0000
-66.5700   10840.0000
-66.0700   10840.0000
-65.5700   10840.0000
-65.0700   10840.0000
-64.5700   10840.0000
-64.0700   10840.0000
-63.5700   10840.0000
-63.0700   10840.0000
-62.5700   10840.0000
-62.0700   10840.0000
-61.5700   10840.0000
-61.0700   10840.0000
-60.5700   10840.0000
-60.0700   10840.0000
-59.5700   10840.0000
-59.0700   10840.0000
-58.5700   10840.0000
-58.0700   10840.0000
-57.5700   10840.0000
-57.0700   10840.0000
-56.5700   10840.0000
-56.0700   10840.0000
-55.5700   10840.0000
-55.0700   10840.0000
-54.5700   10840.0000
-54.0700   10840.0000
-53.5700   10840.0000
-53.0700   10840.0000
-52.5700   10840.0000
-52.0700   10840.0000
-51.5700   10840.0000
-51.0700   10840.0000
-50.5700   10840.0000
-50.0700   10840.0000
-49.5700   10840.0000
-49.0700   10840.0000
-48.5700   10840.0000
-48.0700   10840.0000
-47.5700   10840.0000
-47.0700   10840.0000
-46.5700   10840.0000
-46.0700   10840.0000
-45.5700   10840.0000
-45.0700   10840.0000
-44.5700   10840.0000
-44.0700   10840.0000
-43.5700   10840.0000
-43.0700   10840.0000
-42.5700   10840.0000
-42.0700   10840.0000
-41.5700   10840.0000
-41.0700   10840.0000
-40.5700   10840.0000
-40.0700   10840.0000
-39.5700   10840.0000
-39.0700   10840.0000
-38.5700   10840.0000
-38.0700   10840.0000
-37.5700   10840.0000
-37.0700   10840.0000
-36.5700   10840.0000
-36.0700   10840.0000
-35.5700   10840.0000
-35.0700   10840.0000
-34.5700   10840.0000
-34.0700   10840.0000
-33.5700   10840.0000
-33.0700   10840.0000
-32.5700   10840.0000
-32.0700   10840.0000
-31.5700   10840.0000
-31.0700   10840.0000
-30.5700   10840.0000
-30.0700   10840.0000
-29.5700   10840.0000
-29.0700   10840.0000
-28.5700   10840.0000
-28.0700   10840.0000
-27.5700   10840.0000
-27.0700   10840.0000
-26.5700   10840.0000
-26.0700   10840.0000
-25.5700   10840.0000
-25.0700   10840.0000
-24.5700   10840.0000
-24.0700   10840.0000
-23.5700   10840.0000
-23.0700   10840.0000
-22.5700   10840.0000
-22.0700   10840.0000
-21.5700   10840.0000
-21.0700   10840.0000
-20.5700   10840.0000
-20.0700   10840.0000
-19.5700   10840.0000
-19.0700   10840.0000
-18.5700   10840.0000
-18.0700   10840.0000
-17.5700   10840.0000
-17.0700   10840.0000
-16.5700   10840.0000
-16.0700   10840.0000
-15.5700   10840.0000
-15.0700   10840.0000
-14.5700   10840.0000
-14.0700   10840.0000
-13.5700   10840.0000
-13.0700   10840.0000
-12.5700   10840.0000
-12.0700   10840.0000
-11.5700   10840.0000
-11.0700   10840.0000
-10.5700   10840.0000
-10.0700   10840.0000
-9.5700   10840.0000
-9.0700   10840.0000
-8.5700   10840.0000
-8.0700   10840.0000
-7.5700   10840.0000
-7.0700   10840.0000
-6.5700   10840.0000
-6.0700   10840.0000
-5.5700   10840.0000
-5.0700   10840.0000
-4.5700   10840.0000
-4.0700   10840.0000
-3.5700   10840.0000
-3.0700   10840.0000
-2.5700   10840.0000
-2.0700   10840.0000
-1.5700   10840.0000
-1.0700   10818.7241
-0.5700   10819.0740
-0.0700   10818.0550
0.4400   10816.5489
0.9500   10815.2783
1.4600   10813.3421
1.9700   10811.1654
2.4800   10803.7042
2.9900   10795.9774
3.5000   10789.1242
4.0100   10790.8670
4.5200   10793.8254
5.0300   10804.4038
5.5500   10819.7129
6.0600   10827.3309
6.5700   10830.9089
7.0800   10832.2179
7.5900   10832.6914
8.1000   10832.2448
8.6100   10832.5033
9.1200   10832.2511
9.6300   10832.3038
10.1400   10832.8812
10.6500   10832.9668
11.1600   10832.6542
11.6700   10832.3025
12.1800   10833.3161
12.6900   10833.6145
13.2000   10834.5214
13.7100   10835.8975
14.2200   10837.4149
14.7300   10838.4623
15.2400   10838.5418
15.7500   10838.7307
16.2700   10839.3905
16.7800   10839.4584
17.2900   10839.3361
17.8000   10838.6295
18.3100   10838.2052
18.8200   10838.4067
19.3300   10838.6643
19.8400   10837.3147
20.3500   10838.2121
20.8600   10837.8838
21.3700   10837.5903
21.8800   10837.5934
22.3900   10837.9583
22.9000   10838.1392
23.4100   10839.2871
23.9200   10838.9474
24.4300   10838.8170
24.9400   10836.8597
25.4500   10836.2736
25.9600   10836.7321
26.4700   10837.9237
26.9900   10836.7996
27.5000   10836.8990
28.0100   10838.0656
28.5200   10837.9933
29.0300   10837.1902
29.5400   10837.6792
30.0500   10838.2552
30.5600   10839.0562
31.0700   10838.2641
31.5800   10839.3923
32.0900   10838.6070
32.6000   10838.0923
33.1100   10838.1648
33.6200   10840.0979
34.1300   10840.3140
34.6400   10840.4062
35.1500   10840.0812
35.6600   10839.1422
36.1700   10839.7873
36.6800   10841.1164
37.1900   10840.0366
37.7100   10840.6881
38.2200   10840.8097
38.7300   10841.0908
39.2400   10841.8946
39.7500   10841.8760
40.2600   10842.0677
40.7700   10841.9439
41.2800   10841.3388
41.7900   10840.1773
42.3000   10840.6739
42.8100   10841.4307
43.3200   10841.0450
43.8300   10840.6777
44.3400   10840.6358
44.8500   10841.2198
45.3600   10840.8885
45.8700   10840.5619
46.3800   10840.1677
46.8900   10840.9263
47.4000   10841.0123
47.9100   10840.9945
48.4300   10839.5895
48.9400   10840.0017
49.4500   10839.9626
49.9600   10840.9598
50.4700   10839.7029
50.9800   10840.0397
51.4900   10839.9021
52.0000   10840.5863
52.5100   10840.6598
53.0200   10840.9182
53.5300   10840.0075
54.0400   10840.0859
54.5500   10839.5293
55.0600   10840.7942
55.5700   10840.1248
56.0800   10839.4605
56.5900   10840.4612
57.1000   10841.4371
57.6100   10840.2476
58.1200   10840.3306
58.6300   10840.0368
59.1500   10839.8954
59.6600   10839.2841
60.1700   10839.4744
60.6800   10838.8373
61.1900   10840.1791
61.7000   10839.4058
62.2100   10839.1385
62.7200   10839.0503
63.2300   10838.6732
63.7400   10838.5104
64.2500   10838.7108
64.7600   10838.3100
65.2700   10839.2451
65.7800   10839.4268
66.2900   10839.2537
66.8000   10839.3871
67.3100   10839.7115
67.8200   10839.8235
68.3300   10841.0329
68.8400   10840.1867
69.3500   10839.9266
69.8700   10839.1380
70.3800   10839.3502
70.8900   10838.9749
71.4000   10840.1652
71.9100   10840.3697
72.4200   10840.7397
72.9300   10841.9131
73.4400   10841.5765
73.9500   10841.3138
74.4600   10840.1792
74.9700   10838.7631
75.4800   10839.2817
75.9900   10839.8233
76.5000   10838.6569
77.0100   10839.1040
77.5200   10839.3051
78.0300   10839.4714
78.5400   10838.8562
79.0500   10840.2437
79.5600   10840.4692
80.0700   10839.6402
80.5900   10839.5699
81.1000   10838.5953
81.6100   10839.0893
82.1200   10837.9132
82.6300   10837.5310
83.1400   10838.0545
83.6500   10838.9363
84.1600   10839.3175
84.6700   10838.0705
85.1800   10835.3856
85.6900   10830.2641
86.2000   10816.5846
86.7100   10801.5456
87.2200   10771.1246
87.7300   10758.7876
88.2400   10751.1871
88.7500   10748.1133
89.2600   10743.1291
89.7700   10737.4462
90.2800   10728.7015
90.7900   10726.0862
91.3100   10720.0000
91.8200   10720.0000
92.3300   10775.1132
92.8400   10797.3162
93.3500   10810.7806
93.8600   10815.5167
94.3700   10816.0030
94.8800   10817.0775
95.3900   10818.1464
95.9000   10816.6452
96.4100   10818.2589
96.9200   10817.9065
97.4300   10819.7761
97.9400   10820.0153
98.4500   10819.8147
98.9600   10820.9193
99.4700   10820.0217
99.9800   10820.7678
100.4900   10819.0032
101.0000   10820.2714
101.5100   10820.0735
102.0300   10820.7329
102.5400   10820.8028
103.0500   10822.4960
103.5600   10821.8582
104.0700   10822.0337
104.5800   10821.2059
105.0900   10821.2695
105.6000   10820.9878
106.1100   10820.1867
106.6200   10820.8571
107.1300   10821.9179
107.6400   10821.1481
108.1500   10820.8862
108.6600   10821.4073
109.1700   10822.6916
109.6800   10822.3657
110.1900   10821.2072
110.7000   10820.9661
111.2100   10822.3381
111.7200   10820.2414
112.2300   10820.8532
112.7500   10822.4431
113.2600   10820.9401
113.7700   10820.2655
114.2800   10821.6142
114.7900   10821.2245
115.3000   10820.9319
115.8100   10821.2000
116.3200   10820.4413
116.8300   10820.8766
117.3400   10821.4762
117.8500   10822.2510
118.3600   10822.6447
118.8700   10821.7053
119.3800   10821.2282
119.8900   10822.0285
120.4000   10823.5076
120.9100   10823.1446
121.4200   10823.7809
121.9300   10823.3877
122.4400   10823.7091
122.9500   10823.5659
123.4700   10824.5705
123.9800   10823.1755
124.4900   10822.9734
125.0000   10823.0838
125.5100   10821.8736
126.0200   10821.1409
126.5300   10822.2072
127.0400   10822.3863
127.5500   10823.7006
128.0600   10821.1846
128.5700   10821.5848
129.0800   10821.9091
129.5900   10822.1108
130.1000   10822.0216
130.6100   10822.6579
131.1200   10822.0987
131.6300   10822.4648
132.1400   10823.2346
132.6500   10823.6500
133.1600   10823.3046
133.6700   10824.5350
134.1900   10824.6275
134.7000   10824.7666
135.2100   10824.5277
135.7200   10824.6323
136.2300   10823.9455
136.7400   10824.0199
137.2500   10824.1748
137.7600   10825.4932
138.2700   10827.1257
138.7800   10826.8977
139.2900   10824.9936
139.8000   10824.9818
140.3100   10824.1607
140.8200   10823.7092
141.3300   10824.7028
141.8400   10824.5454
142.3500   10824.1301
142.8600   10824.7068
143.3700   10823.2638
143.8800   10824.0979
144.3900   10825.3516
144.9100   10825.4168
145.4200   10825.5516
145.9300   10827.5780
146.4400   10826.9115
146.9500   10827.9539
147.4600   10828.2134
147.9700   10827.9247
148.4800   10826.8301
148.9900   10825.9452
149.5000   10825.8332
150.0100   10825.6502
150.5200   10824.7489
151.0300   10826.5669
151.5400   10825.3109
152.0500   10825.1987
152.5600   10821.9901
153.0700   10822.3585
153.5800   10823.1225
154.0900   10822.6262
154.6000   10822.8966
155.1100   10824.2295
155.6300   10823.4050
156.1400   10824.3200
156.6500   10822.8294
157.1600   10824.2526
157.6700   10824.2690
158.1800   10824.6575
158.6900   10823.0066
159.2000   10824.2606
159.7100   10822.8079
160.2200   10823.7542
160.7300   10824.2685
161.2400   10824.2713
161.7500   10821.9028
162.2600   10823.6243
162.7700   10824.2992
163.2800   10825.9582
163.7900   10823.4016
164.3000   10823.8861
164.8100   10823.3456
165.3200   10824.6999
165.8300   10824.3252
166.3500   10823.8396
166.8600   10822.4359
167.3700   10824.1998
167.8800   10823.9946
168.3900   10825.2579
168.9000   10822.8701
169.4100   10822.9902
169.9200   10822.5449
170.4300   10823.4127
170.9400   10823.3103
171.4500   10824.1471
171.9600   10821.9549
172.4700   10824.2627
172.9800   10824.2393
173.4900   10823.8283
174.0000   10823.5441
174.5100   10823.8073
175.0200   10823.3059
175.5300   10824.8607
176.0400   10824.0240
176.5500   10824.0990
177.0700   10824.2664
177.5800   10824.7260
178.0900   10822.6562
178.6000   10824.0768
179.1100   10823.1846
179.6200   10824.4738
180.1300   10823.2333
180.6400   10825.0798
181.1500   10825.9725
181.6600   10824.0196
182.1700   10822.1193
182.6800   10822.8171
183.1900   10825.3301
183.7000   10825.7179
184.2100   10824.4700
184.7200   10824.6873
185.2300   10823.6741
185.7400   10824.3096
186.2500   10822.5767
186.7600   10821.9438
187.2700   10821.4746
187.7900   10821.8764
188.3000   10822.5091
188.8100   10824.0035
189.3200   10824.0949
189.8300   10823.7464
190.3400   10823.8784
190.8500   10825.4158
191.3600   10822.1151
191.8700   10822.5398
192.3800   10824.1098
192.8900   10826.1517
193.4000   10825.6180
193.9100   10824.4055
194.4200   10824.5154
194.9300   10826.0555
195.4400   10825.4890
195.9500   10825.9422
196.4600   10827.4698
196.9700   10826.1038
197.4800   10824.7523
197.9900   10824.6096
198.5100   10823.9427
199.0200   10824.6016
199.5300   10822.9365
200.0400   10824.9143
200.5500   10824.9801
201.0600   10825.1497
201.5700   10825.6219
202.0800   10825.9293
202.5900   10823.0360
203.1000   10824.6006
203.6100   10825.0296
204.1200   10824.8033
204.6300   10824.9018
205.1400   10825.5302
205.6500   10824.4899
206.1600   10824.0243
206.6700   10824.3238
207.1800   10823.2945
207.6900   10823.5114
208.2000   10824.0980
208.7100   10826.0331
209.2300   10826.1181
209.7400   10825.4829
210.2500   10824.5954
210.7600   10825.3893
211.2700   10824.3822
211.7800   10825.1183
212.2900   10826.0612
212.8000   10824.7313
213.3100   10824.9401
213.8200   10825.6459
214.3300   10824.9744
214.8400   10826.5022
215.3500   10825.2434
215.8600   10825.7642
216.3700   10825.7099
216.8800   10824.6206
217.3900   10824.7571
217.9000   10825.5836
218.4100   10825.5643
218.9200   10824.2997
219.4300   10824.0096
219.9500   10823.9393
220.4600   10823.0904
220.9700   10823.1356
221.4800   10824.2820
221.9900   10824.7148
222.5000   10825.1315
223.0100   10824.0717
223.5200   10824.3432
224.0300   10824.6439
224.5400   10825.0784
225.0500   10824.4242
225.5600   10824.0208
226.0700   10825.0838
226.5800   10825.6368
227.0900   10824.8814
227.6000   10824.4751
228.1100   10824.3376
228.6200   10824.0375
229.1300   10823.2795
229.6400   10822.6948
230.1500   10822.4987
230.6700   10821.3120
231.1800   10821.1119
231.6900   10823.4831
232.2000   10824.9565
232.7100   10824.6245
233.2200   10825.0385
233.7300   10824.1614
234.2400   10825.8626
234.7500   10825.3958
235.2600   10824.6697
235.7700   10824.3950
236.2800   10822.7181
236.7900   10822.7522
237.3000   10823.6329
237.8100   10823.6142
238.3200   10823.4914
238.8300   10823.7777
239.3400   10823.3876
239.8500   10823.2372
240.3600   10822.9386
240.8700   10823.5452
241.3900   10823.8092
241.9000   10823.7165
242.4100   10824.2979
242.9200   10825.0239
243.4300   10825.4696
243.9400   10824.0013
244.4500   10823.6490
244.9600   10824.5189
245.4700   10824.9655
245.9800   10824.4307
246.4900   10824.1750
247.0000   10824.2612
247.5100   10824.6858
248.0200   10824.3067
248.5300   10823.4544
249.0400   10824.3257
249.5500   10825.7874
250.0600   10825.9839
250.5700   10826.3600
251.0800   10825.9740
251.5900   10825.0162
252.1100   10825.8838
252.6200   10826.1650
253.1300   10826.6511
253.6400   10825.6795
254.1500   10826.2273
254.6600   10824.3874
255.1700   10824.4735
255.6800   10824.7345
256.1900   10824.7273
256.7000   10824.1119
257.2100   10825.2164
257.7200   10824.3984
258.2300   10825.0094
258.7400   10824.7391
259.2500   10825.3879
259.7600   10826.0029
260.2700   10825.1112
260.7800   10825.2248
261.2900   10825.2618
261.8000   10823.1269
262.3100   10823.7891
262.8300   10824.9811
263.3400   10825.5598
263.8500   10823.9241
264.3600   10825.5878
264.8700   10825.2027
265.3800   10825.1414
265.8900   10824.5694
266.4000   10825.4952
266.9100   10824.7752
267.4200   10826.0623
267.9300   10825.3571
268.4400   10824.7399
268.9500   10825.4943
269.4600   10825.4064
269.9700   10825.0362
270.4800   10825.8047
270.9900   10825.6333
271.5000   10825.5031
272.0100   10824.2734
272.5200   10825.2736
273.0300   10823.6997
273.5500   10825.2635
274.0600   10824.8688
274.5700   10824.3810
275.0800   10823.5538
275.5900   10824.0050
276.1000   10823.1438
276.6100   10824.5003
277.1200   10823.6037
277.6300   10824.9127
278.1400   10825.7481
278.6500   10825.9535
279.1600   10824.0416
279.6700   10823.5800
280.1800   10822.6014
280.6900   10823.8771
281.2000   10824.2284
281.7100   10824.4191
282.2200   10824.4809
282.7300   10825.9352
283.2400   10824.4045
283.7500   10826.2993
284.2700   10825.6491
284.7800   10825.5290
285.2900   10824.7790
285.8000   10825.0449
286.3100   10823.5957
286.8200   10825.4641
287.3300   10825.6808
287.8400   10825.6085
288.3500   10825.5855
288.8600   10826.1600
289.3700   10826.0315
289.8800   10826.7586
290.3900   10825.2053
290.9000   10825.3012
291.4100   10824.6054
291.9200   10824.4650
292.4300   10822.6544
292.9400   10823.6391
293.4500   10824.3913
293.9600   10825.5119
294.4700   10826.4788
294.9900   10826.2914
295.5000   10825.3679
296.0100   10826.8122
296.5200   10826.0882
297.0300   10826.2752
297.5400   10825.8810
298.0500   10823.9853
298.5600   10824.1360
299.0700   10826.4932
299.5800   10826.0871
300.0900   10825.2964
300.6000   10824.3767
301.1100   10825.6439
301.6200   10823.3410
302.1300   10824.5113
302.6400   10825.3747
303.1500   10826.0334
303.6600   10826.5693
304.1700   10827.1259
304.6800   10825.4603
305.1900   10824.8236
305.7100   10824.6445
306.2200   10824.3566
306.7300   10825.3880
307.2400   10826.5876
307.7500   10825.8314
308.2600   10825.8698
308.7700   10824.6979
309.2800   10825.3584
309.7900   10825.3592
310.3000   10825.9446
310.8100   10825.4301
311.3200   10825.6114
