#----------------------------------
# BOTDR
# DSTS: v.07.1
# Fri Oct 22 13:45:15 2021
#
# Channel No  = 0
# Partial   = 0
# Partial Start  = 0.00
# Partial End  = 5118.55
# Fibre Length    [m]   = 5118.55  0.00
# Fiber Delay    [m]   = 118.55
# Connection Point    [m]   = 198.64
# Rpt.period      [us]  = 65
# Pulse width     [ns]  = 40
# Frequency Start [MHz] = 10690.00
# Frequency End:  [MHz] = 10990.00
# Frequency Step: [MHz] = 5.00
# No.Averages:    [-]   = 12000
# Sampling Rate   [-]   = 2 (50.00MSs, spatial step = 2.00m)
# Input Range     [-]   = 2 (1V)
# Pulse Delay     [m]   = 100
# Post Pulse Data [m]   = 0
# Fiber Type      [-]   = CH4 Land
# Fiber  temperature [C] = 27.00
# Fiber  Bril Frequency  [MHz] = 10840.00
# Fiber  Strain Coefficient  [ue/MHz] = 18.9150
# Fiber Temperature Coefficient [C/MHz] = 0.9765
# Fiber Refractive Index = 1.4682
# Fiber Sigma = 0.2000
#
#----------------------------------
2509

-118.5500   10840.0000
-116.5500   10840.0000
-114.5500   10840.0000
-112.5500   10840.0000
-110.5500   10840.0000
-108.5500   10840.0000
-106.5500   10840.0000
-104.5500   10840.0000
-102.5500   10840.0000
-100.5500   10840.0000
-98.5500   10840.0000
-96.5500   10840.0000
-94.5500   10840.0000
-92.5500   10840.0000
-90.5500   10840.0000
-88.5500   10840.0000
-86.5500   10840.0000
-84.5500   10840.0000
-82.5500   10840.0000
-80.5500   10840.0000
-78.5500   10840.0000
-76.5500   10840.0000
-74.5500   10840.0000
-72.5500   10840.0000
-70.5500   10840.0000
-68.5500   10840.0000
-66.5500   10840.0000
-64.5500   10840.0000
-62.5500   10840.0000
-60.5500   10840.0000
-58.5500   10840.0000
-56.5500   10840.0000
-54.5500   10840.0000
-52.5500   10840.0000
-50.5500   10840.0000
-48.5500   10840.0000
-46.5500   10840.0000
-44.5500   10840.0000
-42.5500   10840.0000
-40.5500   10840.0000
-38.5500   10840.0000
-36.5500   10840.0000
-34.5500   10840.0000
-32.5500   10840.0000
-30.5500   10840.0000
-28.5500   10840.0000
-26.5500   10840.0000
-24.5500   10840.0000
-22.5500   10840.0000
-20.5500   10840.0000
-18.5500   10840.0000
-16.5500   10840.0000
-14.5500   10840.0000
-12.5500   10840.0000
-10.5500   10840.0000
-8.5500   10840.0000
-6.5500   10840.0000
-4.5500   10840.0000
-2.5500   10812.1931
-0.5500   10810.7569
1.4900   10810.7390
3.5300   10819.9251
5.5800   10829.8275
7.6200   10831.4710
9.6600   10832.0752
11.7000   10833.8420
13.7400   10836.2460
15.7900   10837.4366
17.8300   10837.4595
19.8700   10837.2689
21.9100   10836.4943
23.9500   10835.9751
25.9900   10836.0683
28.0400   10836.4839
30.0800   10837.0282
32.1200   10837.4653
34.1600   10837.9709
36.2000   10838.6810
38.2500   10839.4567
40.2900   10839.4938
42.3300   10839.1288
44.3700   10838.6667
46.4100   10838.5234
48.4600   10838.2763
50.5000   10838.4167
52.5400   10838.8906
54.5800   10838.8702
56.6200   10838.4746
58.6700   10838.0813
60.7100   10838.0241
62.7500   10838.1422
64.7900   10838.1730
66.8300   10838.4211
68.8700   10838.3922
70.9200   10838.3738
72.9600   10838.5230
75.0000   10838.4496
77.0400   10838.3760
79.0800   10838.1964
81.1300   10837.5553
83.1700   10835.8439
85.2100   10807.6668
87.2500   10760.2024
89.2900   10755.6793
91.3400   10806.9241
93.3800   10816.9249
95.4200   10817.4560
97.4600   10817.4081
99.5000   10818.2809
101.5500   10818.6592
103.5900   10818.5437
105.6300   10818.0697
107.6700   10818.0343
109.7100   10818.0539
111.7500   10817.8740
113.8000   10817.7626
115.8400   10817.8710
117.8800   10818.1423
119.9200   10819.2436
121.9600   10819.5866
124.0100   10819.3443
126.0500   10819.9954
128.0900   10820.2995
130.1300   10820.5567
132.1700   10821.5772
134.2200   10821.4766
136.2600   10820.9415
138.3000   10820.7710
140.3400   10820.6755
142.3800   10821.4192
144.4300   10823.7874
146.4700   10825.5274
148.5100   10826.2819
150.5500   10825.3875
152.5900   10823.7331
154.6300   10823.1490
156.6800   10823.0087
158.7200   10823.1405
160.7600   10822.7035
162.8000   10822.9100
164.8400   10822.2200
166.8900   10822.4995
168.9300   10824.5160
170.9700   10826.8561
173.0100   10828.6962
175.0500   10830.1313
177.1000   10831.0995
179.1400   10831.1505
181.1800   10831.0988
183.2200   10830.9733
185.2600   10830.9974
187.3100   10830.8256
189.3500   10830.4637
191.3900   10830.2111
193.4300   10830.2707
195.4700   10830.4307
197.5100   10830.9481
199.5600   10830.8320
201.6000   10830.9961
203.6400   10831.1654
205.6800   10831.2628
207.7200   10831.4453
209.7700   10831.5323
211.8100   10831.4626
213.8500   10831.1904
215.8900   10831.2615
217.9300   10831.6630
219.9800   10831.1917
222.0200   10829.9987
224.0600   10828.7234
226.1000   10829.0474
228.1400   10828.7011
230.1900   10828.2142
232.2300   10829.5249
234.2700   10829.6197
236.3100   10829.4486
238.3500   10830.8958
240.3900   10831.7129
242.4400   10831.4172
244.4800   10828.9824
246.5200   10825.4379
248.5600   10824.9118
250.6000   10826.6340
252.6500   10828.0142
254.6900   10828.2989
256.7300   10827.1327
258.7700   10826.3787
260.8100   10826.5774
262.8600   10827.3407
264.9000   10828.0681
266.9400   10828.0633
268.9800   10828.2671
271.0200   10828.0524
273.0700   10828.2903
275.1100   10828.8729
277.1500   10828.9778
279.1900   10828.8136
281.2300   10828.8460
283.2700   10828.6201
285.3200   10828.5939
287.3600   10828.1067
289.4000   10826.2618
291.4400   10825.3711
293.4800   10826.0852
295.5300   10826.5529
297.5700   10826.7666
299.6100   10827.2124
301.6500   10827.3054
303.6900   10827.6187
305.7400   10827.4756
307.7800   10826.1485
309.8200   10825.2653
311.8600   10824.7985
313.9000   10824.7142
315.9500   10825.8087
317.9900   10828.0952
320.0300   10829.4354
322.0700   10829.5185
324.1100   10829.5469
326.1500   10829.6839
328.2000   10830.3829
330.2400   10831.2643
332.2800   10831.3488
334.3200   10830.9773
336.3600   10830.6080
338.4100   10830.2517
340.4500   10830.3949
342.4900   10831.5912
344.5300   10832.0571
346.5700   10832.0013
348.6200   10830.7186
350.6600   10828.5860
352.7000   10827.1071
354.7400   10827.6836
356.7800   10829.1351
358.8300   10830.0449
360.8700   10830.3646
362.9100   10830.2649
364.9500   10829.6180
366.9900   10829.2054
369.0300   10828.7825
371.0800   10828.0072
373.1200   10827.4902
375.1600   10827.6613
377.2000   10827.7105
379.2400   10827.2636
381.2900   10826.4189
383.3300   10825.8416
385.3700   10825.6705
387.4100   10826.4929
389.4500   10827.3115
391.5000   10828.0298
393.5400   10828.5467
395.5800   10828.2954
397.6200   10828.6309
399.6600   10828.7649
401.7100   10828.6049
403.7500   10829.1025
405.7900   10829.0156
407.8300   10828.6006
409.8700   10828.3184
411.9100   10828.2160
413.9600   10828.1066
416.0000   10828.0373
418.0400   10828.0593
420.0800   10827.6824
422.1200   10827.5334
424.1700   10828.1486
426.2100   10828.3562
428.2500   10828.7805
430.2900   10828.9060
432.3300   10829.1209
434.3800   10829.2878
436.4200   10828.8077
438.4600   10828.6814
440.5000   10828.8354
442.5400   10828.4412
444.5900   10827.4919
446.6300   10827.5914
448.6700   10828.5835
450.7100   10829.2620
452.7500   10829.2794
454.7900   10828.7133
456.8400   10828.7947
458.8800   10828.7287
460.9200   10827.3590
462.9600   10825.8204
465.0000   10825.4971
467.0500   10825.0418
469.0900   10825.0302
471.1300   10826.5680
473.1700   10828.5861
475.2100   10829.2829
477.2600   10828.6300
479.3000   10827.2572
481.3400   10825.8390
483.3800   10827.0231
485.4200   10829.3506
487.4700   10830.2626
489.5100   10829.6249
491.5500   10828.5532
493.5900   10829.4057
495.6300   10830.0540
497.6700   10830.4890
499.7200   10830.4636
501.7600   10828.8518
503.8000   10827.3239
505.8400   10827.2862
507.8800   10828.3318
509.9300   10829.3799
511.9700   10830.0474
514.0100   10830.2021
516.0500   10830.2737
518.0900   10830.2927
520.1400   10829.8935
522.1800   10829.2649
524.2200   10827.7785
526.2600   10826.0518
528.3000   10824.9727
530.3500   10824.2121
532.3900   10824.0241
534.4300   10823.0220
536.4700   10822.4105
538.5100   10822.0748
540.5500   10821.4580
542.6000   10821.3221
544.6400   10821.5022
546.6800   10821.7095
548.7200   10821.6353
550.7600   10821.6849
552.8100   10824.6509
554.8500   10832.8232
556.8900   10843.0248
558.9300   10845.4566
560.9700   10844.5626
563.0200   10843.6941
565.0600   10843.1065
567.1000   10842.5775
569.1400   10843.0249
571.1800   10842.8471
573.2300   10842.5292
575.2700   10843.0994
577.3100   10843.7664
579.3500   10845.6926
581.3900   10847.4676
583.4300   10847.2440
585.4800   10846.4070
587.5200   10846.4808
589.5600   10847.5259
591.6000   10848.1119
593.6400   10848.8404
595.6900   10848.9946
597.7300   10848.8568
599.7700   10848.5798
601.8100   10848.1568
603.8500   10847.8812
605.9000   10847.1353
607.9400   10846.4670
609.9800   10846.1697
612.0200   10846.0655
614.0600   10846.5119
616.1100   10846.9921
618.1500   10846.9839
620.1900   10847.2131
622.2300   10847.1762
624.2700   10846.9467
626.3100   10847.3604
628.3600   10847.6501
630.4000   10847.5557
632.4400   10848.1399
634.4800   10848.6823
636.5200   10848.8700
638.5700   10848.4516
640.6100   10848.1504
642.6500   10847.7079
644.6900   10847.6525
646.7300   10847.5506
648.7800   10847.3924
650.8200   10846.7923
652.8600   10845.0825
654.9000   10843.7584
656.9400   10843.9159
658.9900   10844.9078
661.0300   10846.0540
663.0700   10846.9666
665.1100   10847.3728
667.1500   10847.3288
669.1900   10847.8596
671.2400   10848.4858
673.2800   10848.3565
675.3200   10847.0592
677.3600   10846.3780
679.4000   10847.4932
681.4500   10847.9769
683.4900   10846.8547
685.5300   10846.5579
687.5700   10847.5428
689.6100   10848.6862
691.6600   10849.6949
693.7000   10848.9602
695.7400   10848.2069
697.7800   10846.8954
699.8200   10847.8432
701.8700   10851.3624
703.9100   10853.4929
705.9500   10854.7134
707.9900   10856.5254
710.0300   10857.1116
712.0700   10856.7415
714.1200   10856.3061
716.1600   10855.6634
718.2000   10855.1584
720.2400   10855.0308
722.2800   10855.1614
724.3300   10855.2412
726.3700   10854.6480
728.4100   10853.4975
730.4500   10853.0968
732.4900   10854.3086
734.5400   10855.6078
736.5800   10856.2845
738.6200   10856.5709
740.6600   10856.5234
742.7000   10856.3089
744.7500   10856.1391
746.7900   10855.7680
748.8300   10854.8438
750.8700   10854.4935
752.9100   10854.7377
754.9500   10854.7702
757.0000   10854.1438
759.0400   10852.9424
761.0800   10852.3989
763.1200   10853.5559
765.1600   10853.6682
767.2100   10853.4877
769.2500   10853.5617
771.2900   10853.4089
773.3300   10852.8297
775.3700   10852.4862
777.4200   10852.8189
779.4600   10852.5493
781.5000   10852.1894
783.5400   10852.1807
785.5800   10852.4190
787.6300   10852.7804
789.6700   10852.6736
791.7100   10852.4342
793.7500   10852.1322
795.7900   10851.3945
797.8300   10850.2303
799.8800   10849.0222
801.9200   10850.2673
803.9600   10851.3351
806.0000   10851.3073
808.0400   10851.1261
810.0900   10850.9799
812.1300   10850.5462
814.1700   10849.8576
816.2100   10850.0851
818.2500   10850.5600
820.3000   10850.1611
822.3400   10849.5300
824.3800   10849.5580
826.4200   10849.4104
828.4600   10849.2030
830.5100   10849.0681
832.5500   10849.0627
834.5900   10849.3438
836.6300   10849.9161
838.6700   10849.6327
840.7100   10847.5955
842.7600   10846.9388
844.8000   10848.0688
846.8400   10848.3785
848.8800   10848.2029
850.9200   10847.8075
852.9700   10848.1453
855.0100   10848.7864
857.0500   10849.2017
859.0900   10849.0609
861.1300   10849.1116
863.1800   10848.2428
865.2200   10846.9379
867.2600   10847.4605
869.3000   10848.2821
871.3400   10848.7052
873.3900   10849.4058
875.4300   10849.3530
877.4700   10849.0538
879.5100   10849.5388
881.5500   10849.9758
883.5900   10849.8893
885.6400   10849.3173
887.6800   10849.4052
889.7200   10849.1372
891.7600   10849.0896
893.8000   10849.4678
895.8500   10849.3194
897.8900   10849.0300
899.9300   10848.8716
901.9700   10847.9840
904.0100   10848.1598
906.0600   10848.6455
908.1000   10848.5468
910.1400   10848.1093
912.1800   10847.4734
914.2200   10846.5083
916.2700   10846.3751
918.3100   10846.6003
920.3500   10847.1691
922.3900   10847.5539
924.4300   10847.4612
926.4700   10847.4894
928.5200   10847.6367
930.5600   10847.6508
932.6000   10847.4712
934.6400   10847.3456
936.6800   10847.0489
938.7300   10846.2015
940.7700   10845.7380
942.8100   10846.0423
944.8500   10846.8116
946.8900   10847.1877
948.9400   10847.1025
950.9800   10847.4756
953.0200   10847.6684
955.0600   10848.2182
957.1000   10848.6070
959.1500   10847.8702
961.1900   10847.0084
963.2300   10845.6085
965.2700   10845.3117
967.3100   10847.5412
969.3500   10849.6837
971.4000   10851.0736
973.4400   10850.9844
975.4800   10850.3278
977.5200   10850.0665
979.5600   10850.4180
981.6100   10850.2627
983.6500   10849.3399
985.6900   10848.5530
987.7300   10847.1520
989.7700   10847.6664
991.8200   10849.8050
993.8600   10850.0055
995.9000   10848.3242
997.9400   10846.5899
999.9800   10845.3171
1002.0300   10844.4992
1004.0700   10844.3103
1006.1100   10844.4455
1008.1500   10843.9903
1010.1900   10843.4054
1012.2300   10843.2964
1014.2800   10844.6806
1016.3200   10846.1111
1018.3600   10846.6534
1020.4000   10847.0826
1022.4400   10847.6063
1024.4900   10848.1515
1026.5300   10848.1494
1028.5700   10848.3689
1030.6100   10848.5367
1032.6500   10848.6301
1034.7000   10848.3615
1036.7400   10847.1993
1038.7800   10848.2237
1040.8200   10849.7098
1042.8600   10850.0003
1044.9100   10849.4897
1046.9500   10848.0432
1048.9900   10847.1092
1051.0300   10847.2496
1053.0700   10847.8230
1055.1100   10847.8609
1057.1600   10845.4988
1059.2000   10842.5586
1061.2400   10841.3466
1063.2800   10841.2089
1065.3200   10841.7154
1067.3700   10842.8384
1069.4100   10843.8322
1071.4500   10844.4617
1073.4900   10845.2658
1075.5300   10845.7011
1077.5800   10845.4880
1079.6200   10845.8014
1081.6600   10846.6683
1083.7000   10846.8639
1085.7400   10846.0932
1087.7900   10847.4880
1089.8300   10849.1208
1091.8700   10850.7777
1093.9100   10851.9119
1095.9500   10851.7462
1097.9900   10850.9469
1100.0400   10850.5230
1102.0800   10849.5157
1104.1200   10848.8645
1106.1600   10848.5333
1108.2000   10847.6316
1110.2500   10847.9025
1112.2900   10850.1976
1114.3300   10850.8322
1116.3700   10849.7755
1118.4100   10848.8924
1120.4600   10848.2681
1122.5000   10848.0594
1124.5400   10849.0949
1126.5800   10848.6153
1128.6200   10845.8229
1130.6700   10844.0509
1132.7100   10843.0114
1134.7500   10844.2491
1136.7900   10846.8206
1138.8300   10848.0460
1140.8700   10848.8782
1142.9200   10849.9870
1144.9600   10851.1128
1147.0000   10851.0261
1149.0400   10850.5394
1151.0800   10851.2043
1153.1300   10850.9814
1155.1700   10849.4038
1157.2100   10847.0057
1159.2500   10846.2617
1161.2900   10847.7712
1163.3400   10849.3696
1165.3800   10849.9905
1167.4200   10850.0316
1169.4600   10850.3939
1171.5000   10850.2015
1173.5500   10849.7959
1175.5900   10849.3832
1177.6300   10848.7659
1179.6700   10847.5978
1181.7100   10846.4452
1183.7500   10847.8102
1185.8000   10849.5414
1187.8400   10849.6363
1189.8800   10849.5151
1191.9200   10849.8212
1193.9600   10849.8301
1196.0100   10849.9309
1198.0500   10849.7500
1200.0900   10849.2909
1202.1300   10849.2208
1204.1700   10847.7586
1206.2200   10846.9405
1208.2600   10848.9909
1210.3000   10850.7339
1212.3400   10850.7939
1214.3800   10850.6387
1216.4300   10850.6636
1218.4700   10850.8826
1220.5100   10851.3690
1222.5500   10851.5779
1224.5900   10850.7730
1226.6300   10850.3901
1228.6800   10849.3516
1230.7200   10847.6343
1232.7600   10848.5941
1234.8000   10850.8626
1236.8400   10852.0401
1238.8900   10851.9513
1240.9300   10851.5557
1242.9700   10851.5350
1245.0100   10850.7247
1247.0500   10849.2904
1249.1000   10847.9504
1251.1400   10847.3229
1253.1800   10846.2278
1255.2200   10846.5900
1257.2600   10848.1740
1259.3100   10848.6461
1261.3500   10848.8813
1263.3900   10849.4869
1265.4300   10849.4022
1267.4700   10848.9843
1269.5100   10849.5197
1271.5600   10850.3287
1273.6000   10850.3676
1275.6400   10849.3661
1277.6800   10846.9791
1279.7200   10845.9211
1281.7700   10847.0031
1283.8100   10847.4091
1285.8500   10847.7597
1287.8900   10847.6590
1289.9300   10847.3853
1291.9800   10847.6110
1294.0200   10847.6243
1296.0600   10847.4630
1298.1000   10847.0697
1300.1400   10845.6084
1302.1900   10844.7226
1304.2300   10845.7278
1306.2700   10847.5926
1308.3100   10848.1122
1310.3500   10847.4081
1312.3900   10847.2312
1314.4400   10847.5571
1316.4800   10847.7378
1318.5200   10847.5315
1320.5600   10847.3638
1322.6000   10846.8561
1324.6500   10846.4161
1326.6900   10845.5942
1328.7300   10845.4525
1330.7700   10845.9820
1332.8100   10846.6033
1334.8600   10847.7616
1336.9000   10849.3421
1338.9400   10850.7136
1340.9800   10850.7663
1343.0200   10850.8788
1345.0700   10850.6058
1347.1100   10849.4025
1349.1500   10847.1741
1351.1900   10845.6610
1353.2300   10846.2884
1355.2700   10848.7370
1357.3200   10850.5350
1359.3600   10850.5955
1361.4000   10849.9112
1363.4400   10849.4289
1365.4800   10850.1848
1367.5300   10851.1941
1369.5700   10851.3247
1371.6100   10851.0489
1373.6500   10849.1090
1375.6900   10846.1846
1377.7400   10845.1527
1379.7800   10847.5137
1381.8200   10850.1600
1383.8600   10850.4937
1385.9000   10850.3872
1387.9500   10850.7142
1389.9900   10850.3870
1392.0300   10849.4986
1394.0700   10849.3283
1396.1100   10850.2502
1398.1500   10849.0863
1400.2000   10847.1989
1402.2400   10847.8683
1404.2800   10849.9553
1406.3200   10850.7981
1408.3600   10851.4549
1410.4100   10851.4920
1412.4500   10851.1791
1414.4900   10850.8251
1416.5300   10850.2769
1418.5700   10850.6397
1420.6200   10850.8368
1422.6600   10849.1294
1424.7000   10845.7307
1426.7400   10843.3838
1428.7800   10844.5057
1430.8300   10846.0884
1432.8700   10847.1099
1434.9100   10847.2313
1436.9500   10847.1409
1438.9900   10847.2253
1441.0300   10846.7360
1443.0800   10844.3702
1445.1200   10842.8938
1447.1600   10842.4000
1449.2000   10842.1709
1451.2400   10841.2396
1453.2900   10841.0416
1455.3300   10840.6967
1457.3700   10841.4667
1459.4100   10844.1082
1461.4500   10845.4000
1463.5000   10844.8234
1465.5400   10844.3913
1467.5800   10843.8675
1469.6200   10844.6523
1471.6600   10846.1152
1473.7100   10846.5554
1475.7500   10847.0522
1477.7900   10846.9869
1479.8300   10846.3081
1481.8700   10846.2858
1483.9100   10846.8105
1485.9600   10846.7582
1488.0000   10846.0650
1490.0400   10846.9512
1492.0800   10847.5929
1494.1200   10848.1804
1496.1700   10849.0845
1498.2100   10849.7532
1500.2500   10849.4969
1502.2900   10849.2856
1504.3300   10849.0826
1506.3800   10848.8110
1508.4200   10849.4511
1510.4600   10850.4920
1512.5000   10850.2206
1514.5400   10849.5977
1516.5900   10849.4744
1518.6300   10847.9340
1520.6700   10846.5359
1522.7100   10846.2312
1524.7500   10846.6211
1526.7900   10849.3126
1528.8400   10850.3997
1530.8800   10849.9946
1532.9200   10849.6940
1534.9600   10849.3950
1537.0000   10849.4720
1539.0500   10850.2497
1541.0900   10850.8876
1543.1300   10851.1671
1545.1700   10851.1056
1547.2100   10851.3293
