#----------------------------------
# BOTDR
# DSTS: v.07.1
# Fri Oct 22 14:19:26 2021
#
# Channel No  = 0
# Partial   = 0
# Partial Start  = 0.00
# Partial End  = 3112.57
# Fibre Length    [m]   = 3112.57  0.00
# Fiber Delay    [m]   = 112.57
# Connection Point    [m]   = 192.66
# Rpt.period      [us]  = 65
# Pulse width     [ns]  = 30
# Frequency Start [MHz] = 10690.00
# Frequency End:  [MHz] = 10990.00
# Frequency Step: [MHz] = 5.00
# No.Averages:    [-]   = 12000
# Sampling Rate   [-]   = 0 (200.00MSs, spatial step = 0.50m)
# Input Range     [-]   = 2 (1V)
# Pulse Delay     [m]   = 100
# Post Pulse Data [m]   = 0
# Fiber Type      [-]   = CH4 Land
# Fiber  temperature [C] = 27.00
# Fiber  Bril Frequency  [MHz] = 10840.00
# Fiber  Strain Coefficient  [ue/MHz] = 18.9150
# Fiber Temperature Coefficient [C/MHz] = 0.9765
# Fiber Refractive Index = 1.4682
# Fiber Sigma = 0.2000
#
#----------------------------------
6104

-112.5700   0.0000
-112.0700   0.0000
-111.5700   0.0000
-111.0700   0.0000
-110.5700   0.0000
-110.0700   0.0000
-109.5700   0.0000
-109.0700   0.0000
-108.5700   0.0000
-108.0700   0.0000
-107.5700   0.0000
-107.0700   0.0000
-106.5700   0.0000
-106.0700   0.0000
-105.5700   0.0000
-105.0700   0.0000
-104.5700   0.0000
-104.0700   0.0000
-103.5700   0.0000
-103.0700   0.0000
-102.5700   0.0000
-102.0700   0.0000
-101.5700   0.0000
-101.0700   0.0000
-100.5700   0.0000
-100.0700   0.0000
-99.5700   0.0000
-99.0700   0.0000
-98.5700   0.0000
-98.0700   0.0000
-97.5700   0.0000
-97.0700   0.0000
-96.5700   0.0000
-96.0700   0.0000
-95.5700   0.0000
-95.0700   0.0000
-94.5700   0.0000
-94.0700   0.0000
-93.5700   0.0000
-93.0700   0.0000
-92.5700   0.0000
-92.0700   0.0000
-91.5700   0.0000
-91.0700   0.0000
-90.5700   0.0000
-90.0700   0.0000
-89.5700   0.0000
-89.0700   0.0000
-88.5700   0.0000
-88.0700   0.0000
-87.5700   0.0000
-87.0700   0.0000
-86.5700   0.0000
-86.0700   0.0000
-85.5700   0.0000
-85.0700   0.0000
-84.5700   0.0000
-84.0700   0.0000
-83.5700   0.0000
-83.0700   0.0000
-82.5700   0.0000
-82.0700   0.0000
-81.5700   0.0000
-81.0700   0.0000
-80.5700   0.0000
-80.0700   0.0000
-79.5700   0.0000
-79.0700   0.0000
-78.5700   0.0000
-78.0700   0.0000
-77.5700   0.0000
-77.0700   0.0000
-76.5700   0.0000
-76.0700   0.0000
-75.5700   0.0000
-75.0700   0.0000
-74.5700   0.0000
-74.0700   0.0000
-73.5700   0.0000
-73.0700   0.0000
-72.5700   0.0000
-72.0700   0.0000
-71.5700   0.0000
-71.0700   0.0000
-70.5700   0.0000
-70.0700   0.0000
-69.5700   0.0000
-69.0700   0.0000
-68.5700   0.0000
-68.0700   0.0000
-67.5700   0.0000
-67.0700   0.0000
-66.5700   0.0000
-66.0700   0.0000
-65.5700   0.0000
-65.0700   0.0000
-64.5700   0.0000
-64.0700   0.0000
-63.5700   0.0000
-63.0700   0.0000
-62.5700   0.0000
-62.0700   0.0000
-61.5700   0.0000
-61.0700   0.0000
-60.5700   0.0000
-60.0700   0.0000
-59.5700   0.0000
-59.0700   0.0000
-58.5700   0.0000
-58.0700   0.0000
-57.5700   0.0000
-57.0700   0.0000
-56.5700   0.0000
-56.0700   0.0000
-55.5700   0.0000
-55.0700   0.0000
-54.5700   0.0000
-54.0700   0.0000
-53.5700   0.0000
-53.0700   0.0000
-52.5700   0.0000
-52.0700   0.0000
-51.5700   0.0000
-51.0700   0.0000
-50.5700   0.0000
-50.0700   0.0000
-49.5700   0.0000
-49.0700   0.0000
-48.5700   0.0000
-48.0700   0.0000
-47.5700   0.0000
-47.0700   0.0000
-46.5700   0.0000
-46.0700   0.0000
-45.5700   0.0000
-45.0700   0.0000
-44.5700   0.0000
-44.0700   0.0000
-43.5700   0.0000
-43.0700   0.0000
-42.5700   0.0000
-42.0700   0.0000
-41.5700   0.0000
-41.0700   0.0000
-40.5700   0.0000
-40.0700   0.0000
-39.5700   0.0000
-39.0700   0.0000
-38.5700   0.0000
-38.0700   0.0000
-37.5700   0.0000
-37.0700   0.0000
-36.5700   0.0000
-36.0700   0.0000
-35.5700   0.0000
-35.0700   0.0000
-34.5700   0.0000
-34.0700   0.0000
-33.5700   0.0000
-33.0700   0.0000
-32.5700   0.0000
-32.0700   0.0000
-31.5700   0.0000
-31.0700   0.0000
-30.5700   0.0000
-30.0700   0.0000
-29.5700   0.0000
-29.0700   0.0000
-28.5700   0.0000
-28.0700   0.0000
-27.5700   0.0000
-27.0700   0.0000
-26.5700   0.0000
-26.0700   0.0000
-25.5700   0.0000
-25.0700   0.0000
-24.5700   0.0000
-24.0700   0.0000
-23.5700   0.0000
-23.0700   0.0000
-22.5700   0.0000
-22.0700   0.0000
-21.5700   0.0000
-21.0700   0.0000
-20.5700   0.0000
-20.0700   0.0000
-19.5700   0.0000
-19.0700   0.0000
-18.5700   0.0000
-18.0700   0.0000
-17.5700   0.0000
-17.0700   0.0000
-16.5700   0.0000
-16.0700   0.0000
-15.5700   0.0000
-15.0700   0.0000
-14.5700   0.0000
-14.0700   0.0000
-13.5700   0.0000
-13.0700   0.0000
-12.5700   0.0000
-12.0700   0.0000
-11.5700   0.0000
-11.0700   0.0000
-10.5700   0.0000
-10.0700   0.0000
-9.5700   0.0000
-9.0700   0.0000
-8.5700   0.0000
-8.0700   0.0000
-7.5700   0.0000
-7.0700   0.0000
-6.5700   0.0000
-6.0700   0.0000
-5.5700   0.0000
-5.0700   0.0000
-4.5700   0.0000
-4.0700   0.0000
-3.5700   0.0000
-3.0700   0.0000
-2.5700   0.0000
-2.0700   0.0000
-1.5700   0.0000
-1.0700   -14.8611
-0.5700   16.8861
-0.0700   21.7163
0.4400   43.2961
0.9500   46.8379
1.4600   70.3535
1.9700   39.0286
2.4800   78.5594
2.9900   136.7301
3.5000   183.7815
4.0100   133.2053
4.5200   208.7776
5.0300   168.4105
5.5500   66.0972
6.0600   28.6595
6.5700   23.2537
7.0800   38.7236
7.5900   48.4916
8.1000   25.7768
8.6100   -10.3268
9.1200   -9.8068
9.6300   4.7698
10.1400   11.5752
10.6500   28.9745
11.1600   28.5022
11.6700   25.5557
12.1800   29.9679
12.6900   4.6935
13.2000   -6.4637
13.7100   -12.3349
14.2200   -12.9115
14.7300   0.1668
15.2400   1.5911
15.7500   11.8902
16.2700   21.7199
16.7800   24.2920
17.2900   25.7115
17.8000   8.4751
18.3100   5.8056
18.8200   7.3633
19.3300   7.3488
19.8400   16.7322
20.3500   25.0946
20.8600   6.8442
21.3700   1.4347
21.8800   -7.7261
22.3900   6.2657
22.9000   16.5178
23.4100   15.8878
23.9200   29.1248
24.4300   2.7272
24.9400   29.3668
25.4500   52.5515
25.9600   16.1612
26.4700   17.1100
26.9900   33.9920
27.5000   10.1945
28.0100   6.3418
28.5200   10.0866
29.0300   47.3552
29.5400   24.6389
30.0500   -0.6963
30.5600   9.6035
31.0700   35.2502
31.5800   28.0268
32.0900   53.2708
32.6000   36.9581
33.1100   23.9882
33.6200   -15.7769
34.1300   -3.7865
34.6400   -2.0779
35.1500   -33.3652
35.6600   -19.3025
36.1700   11.7748
36.6800   12.8586
37.1900   34.3552
37.7100   6.9255
38.2200   -14.1137
38.7300   20.1716
39.2400   -5.6500
39.7500   -10.3025
40.2600   -12.7439
40.7700   -9.9686
41.2800   31.0399
41.7900   42.6695
42.3000   27.3217
42.8100   25.9005
43.3200   32.8821
43.8300   16.6525
44.3400   1.8841
44.8500   -16.3747
45.3600   -41.6294
45.8700   -35.5399
46.3800   -13.6976
46.8900   8.1013
47.4000   7.7332
47.9100   12.5036
48.4300   -19.1522
48.9400   -23.6030
49.4500   6.1664
49.9600   18.7538
50.4700   23.9140
50.9800   18.0656
51.4900   9.5406
52.0000   3.8036
52.5100   -6.3928
53.0200   9.4216
53.5300   8.2770
54.0400   25.0964
54.5500   25.1687
55.0600   20.0395
55.5700   24.1465
56.0800   27.8452
56.5900   28.8815
57.1000   30.7297
57.6100   22.7660
58.1200   21.4089
58.6300   0.3243
59.1500   16.9466
59.6600   9.2021
60.1700   7.8615
60.6800   -12.7319
61.1900   6.0361
61.7000   -25.9652
62.2100   1.3651
62.7200   -0.9704
63.2300   4.9335
63.7400   14.4602
64.2500   26.2879
64.7600   -10.9825
65.2700   9.1592
65.7800   0.5816
66.2900   -10.6105
66.8000   -3.1074
67.3100   -14.5223
67.8200   -4.1686
68.3300   29.7415
68.8400   5.9650
69.3500   30.9280
69.8700   6.1626
70.3800   -4.1840
70.8900   -7.0255
71.4000   15.1792
71.9100   13.2530
72.4200   5.5746
72.9300   6.1509
73.4400   16.3357
73.9500   11.7697
74.4600   40.4171
74.9700   25.7344
75.4800   21.7929
75.9900   -2.2068
76.5000   31.6222
77.0100   28.8875
77.5200   39.2739
78.0300   44.0791
78.5400   65.7628
79.0500   42.8656
79.5600   8.5617
80.0700   -17.8521
80.5900   -16.6696
81.1000   -11.2685
81.6100   9.5404
82.1200   16.4897
82.6300   27.2258
83.1400   27.4357
83.6500   29.4270
84.1600   24.5593
84.6700   16.3394
85.1800   1.6636
85.6900   53.7512
86.2000   40.7498
86.7100   26.6716
87.2200   -24.9420
87.7300   -1.1610
88.2400   -16.8492
88.7500   -72.9169
89.2600   -188.6836
89.7700   -366.1173
90.2800   -1082.3278
90.7900   -261.6879
91.3100   -1134.2008
91.8200   -1212.5832
92.3300   -1261.4308
92.8400   -47.0287
93.3500   -32.6780
93.8600   -4.9444
94.3700   -2.9335
94.8800   -3.6325
95.3900   25.1786
95.9000   34.4433
96.4100   30.1336
96.9200   9.3965
97.4300   -9.3873
97.9400   22.7567
98.4500   -5.0157
98.9600   26.4765
99.4700   20.2477
99.9800   9.0757
100.4900   23.4907
101.0000   48.1478
101.5100   35.0162
102.0300   26.5624
102.5400   43.0961
103.0500   10.3832
103.5600   -0.3733
104.0700   21.2125
104.5800   30.6264
105.0900   12.8284
105.6000   1.9794
106.1100   22.4662
106.6200   14.2236
107.1300   7.9750
107.6400   -1.8384
108.1500   -8.4828
108.6600   7.0608
109.1700   7.0489
109.6800   14.3973
110.1900   -8.1081
110.7000   7.6054
111.2100   18.4340
111.7200   33.1678
112.2300   13.1882
112.7500   13.7573
113.2600   17.9986
113.7700   5.0887
114.2800   -0.8043
114.7900   24.2028
115.3000   35.5197
115.8100   16.5757
116.3200   -7.7065
116.8300   20.5467
117.3400   22.7639
117.8500   -8.8868
118.3600   -1.4267
118.8700   17.6939
119.3800   28.6296
119.8900   50.1891
120.4000   29.9422
120.9100   -2.1594
121.4200   13.4652
121.9300   -14.0297
122.4400   1.1498
122.9500   9.8537
123.4700   -15.8826
123.9800   23.5803
124.4900   36.2020
125.0000   37.9500
125.5100   16.3602
126.0200   51.5639
126.5300   52.9231
127.0400   57.4552
127.5500   39.8785
128.0600   22.5786
128.5700   24.5234
129.0800   2.4210
129.5900   0.1861
130.1000   17.6166
130.6100   25.9565
131.1200   31.5160
131.6300   -3.5429
132.1400   -3.5348
132.6500   -11.7149
133.1600   33.5776
133.6700   31.8689
134.1900   -10.0852
134.7000   22.1027
135.2100   8.7456
135.7200   24.7802
136.2300   9.6426
136.7400   -14.8208
137.2500   28.1359
137.7600   40.6201
138.2700   -9.2403
138.7800   0.4320
139.2900   20.6303
139.8000   -3.7644
140.3100   -39.0667
140.8200   -23.2337
141.3300   29.3311
141.8400   17.3897
142.3500   20.0219
142.8600   23.9894
143.3700   43.8465
143.8800   31.7245
144.3900   15.7967
144.9100   15.2002
145.4200   12.7720
145.9300   -20.7082
146.4400   -16.6506
146.9500   -15.6802
147.4600   39.8804
147.9700   -9.3384
148.4800   -14.9066
148.9900   11.3234
149.5000   29.5338
150.0100   19.6306
150.5200   25.4626
151.0300   -0.0154
151.5400   6.5159
152.0500   20.5505
152.5600   -12.0495
153.0700   -10.9196
153.5800   23.1990
154.0900   35.7563
154.6000   36.8086
155.1100   27.5062
155.6300   6.8645
156.1400   5.5393
156.6500   30.1753
157.1600   28.8136
157.6700   -3.2875
158.1800   8.6053
158.6900   34.9834
159.2000   21.3809
159.7100   -11.3377
160.2200   4.0570
160.7300   48.0568
161.2400   45.5562
161.7500   0.0796
162.2600   35.5491
162.7700   -4.5713
163.2800   -11.1714
163.7900   -3.6179
164.3000   -14.1361
164.8100   -4.2916
165.3200   8.1865
165.8300   -21.8657
166.3500   -22.0629
166.8600   7.5120
167.3700   35.4574
167.8800   36.9288
168.3900   28.8139
168.9000   27.7260
169.4100   15.5267
169.9200   2.5176
170.4300   17.5142
170.9400   -27.1118
171.4500   18.4500
171.9600   20.9565
172.4700   -11.4858
172.9800   -26.4472
173.4900   22.1855
174.0000   17.8814
174.5100   19.1085
175.0200   39.5915
175.5300   54.1636
176.0400   9.2091
176.5500   35.8265
177.0700   43.8927
177.5800   50.9082
178.0900   63.7485
178.6000   19.9865
179.1100   2.7827
179.6200   32.9615
180.1300   31.5927
180.6400   72.8564
181.1500   49.0402
181.6600   23.9941
182.1700   -0.1554
182.6800   52.2867
183.1900   25.5721
183.7000   9.6035
184.2100   -14.3792
184.7200   26.8299
185.2300   -31.5345
185.7400   -33.8879
186.2500   -18.7804
186.7600   12.9398
187.2700   6.1823
187.7900   31.6805
188.3000   3.0401
188.8100   -22.5425
189.3200   -39.6753
189.8300   15.4785
190.3400   -1.0656
190.8500   21.1197
191.3600   -8.7256
191.8700   7.2767
192.3800   11.5362
192.8900   -3.8581
193.4000   -2.4544
193.9100   25.9980
194.4200   18.7470
194.9300   46.4159
195.4400   -2.1101
195.9500   2.7867
196.4600   -34.1864
196.9700   -10.3049
197.4800   -8.7077
197.9900   47.9851
198.5100   76.9897
199.0200   25.7317
199.5300   19.5513
200.0400   18.7542
200.5500   -22.7578
201.0600   12.7484
201.5700   -14.0405
202.0800   54.9151
202.5900   48.1446
203.1000   9.0769
203.6100   -0.7778
204.1200   -15.3151
204.6300   -3.3467
205.1400   12.6649
205.6500   15.9146
206.1600   11.7604
206.6700   -4.7088
207.1800   -19.8732
207.6900   -8.1551
208.2000   10.9854
208.7100   15.3141
209.2300   39.8306
209.7400   22.9259
210.2500   30.7290
210.7600   23.6336
211.2700   20.3296
211.7800   0.8926
212.2900   15.7148
212.8000   20.6171
213.3100   18.3253
213.8200   -6.4869
214.3300   -10.6136
214.8400   4.0825
215.3500   24.3379
215.8600   -32.7809
216.3700   -21.9601
216.8800   -7.4457
217.3900   11.5081
217.9000   4.2097
218.4100   37.1756
218.9200   33.2784
219.4300   29.3478
219.9500   11.1184
220.4600   -23.4154
220.9700   -56.2354
221.4800   6.4396
221.9900   47.3810
222.5000   58.8830
223.0100   -18.9108
223.5200   -26.2441
224.0300   -7.9335
224.5400   -44.5272
225.0500   -44.3951
225.5600   -49.9668
226.0700   -48.6947
226.5800   -62.0693
227.0900   -58.7976
227.6000   -32.1992
228.1100   -0.0645
228.6200   30.1888
229.1300   39.8307
229.6400   34.2393
230.1500   39.2347
230.6700   16.7677
231.1800   24.3209
231.6900   58.9607
232.2000   76.6620
232.7100   22.5322
233.2200   29.7728
233.7300   24.9673
234.2400   12.2275
234.7500   37.3403
235.2600   36.0545
235.7700   32.6482
236.2800   27.4123
236.7900   1.2609
237.3000   34.5378
237.8100   -7.2022
238.3200   -2.7240
238.8300   5.0459
239.3400   42.1420
239.8500   22.5815
240.3600   2.7762
240.8700   -1.8609
241.3900   47.0450
241.9000   23.7702
242.4100   -0.3892
242.9200   6.1694
243.4300   5.9915
243.9400   -10.0722
244.4500   44.4888
244.9600   6.2121
245.4700   26.9187
245.9800   -15.9853
246.4900   15.5883
247.0000   -11.7629
247.5100   -17.6886
248.0200   9.0707
248.5300   19.3836
249.0400   5.7116
249.5500   -6.3089
250.0600   38.1591
250.5700   0.8385
251.0800   6.2182
251.5900   29.2591
252.1100   13.8686
252.6200   -25.3366
253.1300   22.9824
253.6400   28.7595
254.1500   25.7893
254.6600   26.6561
255.1700   26.6288
255.6800   10.4385
256.1900   9.4653
256.7000   5.5365
257.2100   15.9659
257.7200   40.4947
258.2300   43.5697
258.7400   21.9475
259.2500   23.3800
259.7600   20.7634
260.2700   46.6507
260.7800   33.7988
261.2900   22.4441
261.8000   13.5485
262.3100   19.8312
262.8300   44.2631
263.3400   56.2564
263.8500   16.9645
264.3600   -4.2772
264.8700   -5.9729
265.3800   -6.0750
265.8900   11.8720
266.4000   8.6067
266.9100   8.9731
267.4200   -5.8000
267.9300   15.7688
268.4400   26.6658
268.9500   16.3493
269.4600   -9.1190
269.9700   1.8327
270.4800   11.7026
270.9900   13.3892
271.5000   15.1017
272.0100   -6.7557
272.5200   6.8038
273.0300   -47.3298
273.5500   2.2133
274.0600   14.7831
274.5700   28.4632
275.0800   37.6528
275.5900   51.9984
276.1000   42.2386
276.6100   18.4518
277.1200   11.9511
277.6300   4.5999
278.1400   -8.2489
278.6500   -10.8201
279.1600   3.8620
279.6700   20.3716
280.1800   25.6647
280.6900   44.7255
281.2000   35.7078
281.7100   32.9562
282.2200   17.4395
282.7300   38.8561
283.2400   31.4134
283.7500   70.1758
284.2700   30.1775
284.7800   26.5827
285.2900   41.6920
285.8000   12.8810
286.3100   -2.1446
286.8200   42.1099
287.3300   36.8608
287.8400   49.3839
288.3500   36.6375
288.8600   50.5716
289.3700   6.4295
289.8800   44.0331
290.3900   37.4173
290.9000   75.9282
291.4100   28.8230
291.9200   78.9821
292.4300   49.2807
292.9400   30.9760
293.4500   13.6671
293.9600   11.3190
294.4700   25.7206
294.9900   19.3912
295.5000   9.3770
296.0100   -14.5630
296.5200   -4.6850
297.0300   40.9035
297.5400   -3.6694
298.0500   14.4706
298.5600   13.5338
299.0700   27.2753
299.5800   -1.4303
300.0900   4.7854
300.6000   -3.7666
301.1100   -25.9237
301.6200   23.9413
302.1300   68.8158
302.6400   21.4358
303.1500   -3.7233
303.6600   -9.2725
304.1700   40.4304
304.6800   22.8073
305.1900   -9.0768
305.7100   -0.3716
306.2200   20.7363
306.7300   -4.3107
307.2400   54.7490
307.7500   0.6877
308.2600   10.9947
308.7700   -21.6397
309.2800   -2.5642
309.7900   13.2829
310.3000   30.9122
310.8100   35.6438
311.3200   56.9247
311.8300   36.9064
312.3400   40.7181
312.8500   24.9827
313.3600   28.2559
313.8700   -4.0812
314.3800   46.5889
314.8900   3.9231
315.4000   23.9296
315.9100   24.1942
316.4300   22.5292
316.9400   -5.3200
317.4500   22.6185
317.9600   22.9438
318.4700   46.1417
318.9800   91.3089
319.4900   72.7898
320.0000   45.3532
320.5100   35.0376
321.0200   5.3402
321.5300   -4.8922
322.0400   -21.9482
322.5500   23.1276
323.0600   28.0276
323.5700   31.2335
324.0800   7.7649
324.5900   21.3770
325.1000   -7.7157
325.6100   -4.9238
326.1200   -2.6524
326.6300   8.1716
327.1500   19.1706
327.6600   41.4292
328.1700   53.0462
328.6800   31.1632
329.1900   -36.1552
329.7000   10.2714
330.2100   17.1828
330.7200   -10.7412
331.2300   -44.7204
331.7400   0.4146
332.2500   -30.6975
332.7600   23.1539
333.2700   2.3661
333.7800   7.4936
334.2900   -48.1741
334.8000   -28.8525
335.3100   1.0155
335.8200   40.5835
336.3300   48.1900
336.8400   58.4830
337.3500   41.2867
337.8700   43.2328
338.3800   -3.9543
338.8900   -25.9057
339.4000   -4.3697
339.9100   30.3001
340.4200   21.2288
340.9300   2.1242
341.4400   14.2585
341.9500   25.1626
342.4600   -9.8957
342.9700   10.3419
343.4800   4.1233
343.9900   17.8992
344.5000   37.0823
345.0100   59.5695
345.5200   73.5915
346.0300   63.6550
346.5400   -548.1865
347.0500   38.9044
347.5600   55.7977
348.0700   36.9072
348.5900   45.3181
349.1000   24.3397
349.6100   9.2057
350.1200   58.4299
350.6300   80.7525
351.1400   64.1616
351.6500   19.5100
352.1600   22.1006
352.6700   30.7248
353.1800   29.6379
353.6900   -8.7520
354.2000   26.1290
354.7100   33.8013
355.2200   36.6276
355.7300   51.1945
356.2400   18.6721
356.7500   -8.7504
357.2600   -6.8469
357.7700   16.5081
358.2800   13.8886
358.7900   53.0653
359.3100   57.9273
359.8200   8.6077
360.3300   -16.6086
360.8400   -27.4237
361.3500   -31.0873
361.8600   -2.3273
362.3700   -5.4081
362.8800   -27.1271
363.3900   -2.6865
363.9000   15.4139
364.4100   17.5538
364.9200   -11.6779
365.4300   -8.5311
365.9400   13.2801
366.4500   33.4579
366.9600   19.4107
367.4700   -11.2245
367.9800   10.8850
368.4900   46.9713
369.0000   52.3882
369.5100   34.5145
370.0300   -16.8513
370.5400   -12.3771
371.0500   33.3794
371.5600   22.1173
372.0700   9.6112
372.5800   -7.8970
373.0900   -15.3124
373.6000   -28.3529
374.1100   -16.0181
374.6200   -19.2281
375.1300   7.6357
375.6400   -7.1458
376.1500   23.2685
376.6600   45.3540
377.1700   26.7183
377.6800   5.6606
378.1900   -7.9315
378.7000   4.4234
379.2100   29.4720
379.7200   5.4487
380.2300   32.3306
380.7500   9.0432
