#----------------------------------
# BOTDR
# DSTS: v.07.1
# Fri Oct 22 14:22:14 2021
#
# Channel No  = 0
# Partial   = 0
# Partial Start  = 0.00
# Partial End  = 3112.57
# Fibre Length    [m]   = 3112.57  0.00
# Fiber Delay    [m]   = 112.57
# Connection Point    [m]   = 192.66
# Rpt.period      [us]  = 65
# Pulse width     [ns]  = 30
# Frequency Start [MHz] = 10690.00
# Frequency End:  [MHz] = 10990.00
# Frequency Step: [MHz] = 5.00
# No.Averages:    [-]   = 12000
# Sampling Rate   [-]   = 0 (200.00MSs, spatial step = 0.50m)
# Input Range     [-]   = 2 (1V)
# Pulse Delay     [m]   = 100
# Post Pulse Data [m]   = 0
# Fiber Type      [-]   = CH4 Land
# Fiber  temperature [C] = 27.00
# Fiber  Bril Frequency  [MHz] = 10840.00
# Fiber  Strain Coefficient  [ue/MHz] = 18.9150
# Fiber Temperature Coefficient [C/MHz] = 0.9765
# Fiber Refractive Index = 1.4682
# Fiber Sigma = 0.2000
#
#----------------------------------
6104

-112.5700   0.0000
-112.0700   0.0000
-111.5700   0.0000
-111.0700   0.0000
-110.5700   0.0000
-110.0700   0.0000
-109.5700   0.0000
-109.0700   0.0000
-108.5700   0.0000
-108.0700   0.0000
-107.5700   0.0000
-107.0700   0.0000
-106.5700   0.0000
-106.0700   0.0000
-105.5700   0.0000
-105.0700   0.0000
-104.5700   0.0000
-104.0700   0.0000
-103.5700   0.0000
-103.0700   0.0000
-102.5700   0.0000
-102.0700   0.0000
-101.5700   0.0000
-101.0700   0.0000
-100.5700   0.0000
-100.0700   0.0000
-99.5700   0.0000
-99.0700   0.0000
-98.5700   0.0000
-98.0700   0.0000
-97.5700   0.0000
-97.0700   0.0000
-96.5700   0.0000
-96.0700   0.0000
-95.5700   0.0000
-95.0700   0.0000
-94.5700   0.0000
-94.0700   0.0000
-93.5700   0.0000
-93.0700   0.0000
-92.5700   0.0000
-92.0700   0.0000
-91.5700   0.0000
-91.0700   0.0000
-90.5700   0.0000
-90.0700   0.0000
-89.5700   0.0000
-89.0700   0.0000
-88.5700   0.0000
-88.0700   0.0000
-87.5700   0.0000
-87.0700   0.0000
-86.5700   0.0000
-86.0700   0.0000
-85.5700   0.0000
-85.0700   0.0000
-84.5700   0.0000
-84.0700   0.0000
-83.5700   0.0000
-83.0700   0.0000
-82.5700   0.0000
-82.0700   0.0000
-81.5700   0.0000
-81.0700   0.0000
-80.5700   0.0000
-80.0700   0.0000
-79.5700   0.0000
-79.0700   0.0000
-78.5700   0.0000
-78.0700   0.0000
-77.5700   0.0000
-77.0700   0.0000
-76.5700   0.0000
-76.0700   0.0000
-75.5700   0.0000
-75.0700   0.0000
-74.5700   0.0000
-74.0700   0.0000
-73.5700   0.0000
-73.0700   0.0000
-72.5700   0.0000
-72.0700   0.0000
-71.5700   0.0000
-71.0700   0.0000
-70.5700   0.0000
-70.0700   0.0000
-69.5700   0.0000
-69.0700   0.0000
-68.5700   0.0000
-68.0700   0.0000
-67.5700   0.0000
-67.0700   0.0000
-66.5700   0.0000
-66.0700   0.0000
-65.5700   0.0000
-65.0700   0.0000
-64.5700   0.0000
-64.0700   0.0000
-63.5700   0.0000
-63.0700   0.0000
-62.5700   0.0000
-62.0700   0.0000
-61.5700   0.0000
-61.0700   0.0000
-60.5700   0.0000
-60.0700   0.0000
-59.5700   0.0000
-59.0700   0.0000
-58.5700   0.0000
-58.0700   0.0000
-57.5700   0.0000
-57.0700   0.0000
-56.5700   0.0000
-56.0700   0.0000
-55.5700   0.0000
-55.0700   0.0000
-54.5700   0.0000
-54.0700   0.0000
-53.5700   0.0000
-53.0700   0.0000
-52.5700   0.0000
-52.0700   0.0000
-51.5700   0.0000
-51.0700   0.0000
-50.5700   0.0000
-50.0700   0.0000
-49.5700   0.0000
-49.0700   0.0000
-48.5700   0.0000
-48.0700   0.0000
-47.5700   0.0000
-47.0700   0.0000
-46.5700   0.0000
-46.0700   0.0000
-45.5700   0.0000
-45.0700   0.0000
-44.5700   0.0000
-44.0700   0.0000
-43.5700   0.0000
-43.0700   0.0000
-42.5700   0.0000
-42.0700   0.0000
-41.5700   0.0000
-41.0700   0.0000
-40.5700   0.0000
-40.0700   0.0000
-39.5700   0.0000
-39.0700   0.0000
-38.5700   0.0000
-38.0700   0.0000
-37.5700   0.0000
-37.0700   0.0000
-36.5700   0.0000
-36.0700   0.0000
-35.5700   0.0000
-35.0700   0.0000
-34.5700   0.0000
-34.0700   0.0000
-33.5700   0.0000
-33.0700   0.0000
-32.5700   0.0000
-32.0700   0.0000
-31.5700   0.0000
-31.0700   0.0000
-30.5700   0.0000
-30.0700   0.0000
-29.5700   0.0000
-29.0700   0.0000
-28.5700   0.0000
-28.0700   0.0000
-27.5700   0.0000
-27.0700   0.0000
-26.5700   0.0000
-26.0700   0.0000
-25.5700   0.0000
-25.0700   0.0000
-24.5700   0.0000
-24.0700   0.0000
-23.5700   0.0000
-23.0700   0.0000
-22.5700   0.0000
-22.0700   0.0000
-21.5700   0.0000
-21.0700   0.0000
-20.5700   0.0000
-20.0700   0.0000
-19.5700   0.0000
-19.0700   0.0000
-18.5700   0.0000
-18.0700   0.0000
-17.5700   0.0000
-17.0700   0.0000
-16.5700   0.0000
-16.0700   0.0000
-15.5700   0.0000
-15.0700   0.0000
-14.5700   0.0000
-14.0700   0.0000
-13.5700   0.0000
-13.0700   0.0000
-12.5700   0.0000
-12.0700   0.0000
-11.5700   0.0000
-11.0700   0.0000
-10.5700   0.0000
-10.0700   0.0000
-9.5700   0.0000
-9.0700   0.0000
-8.5700   0.0000
-8.0700   0.0000
-7.5700   0.0000
-7.0700   0.0000
-6.5700   0.0000
-6.0700   0.0000
-5.5700   0.0000
-5.0700   0.0000
-4.5700   0.0000
-4.0700   0.0000
-3.5700   0.0000
-3.0700   0.0000
-2.5700   0.0000
-2.0700   0.0000
-1.5700   0.0000
-1.0700   -25.5233
-0.5700   2.8995
-0.0700   15.9778
0.4400   16.2760
0.9500   18.1744
1.4600   9.7103
1.9700   0.2118
2.4800   -0.9922
2.9900   -2.3447
3.5000   6.5285
4.0100   31.4620
4.5200   159.8677
5.0300   133.3195
5.5500   33.9682
6.0600   19.0449
6.5700   -25.6117
7.0800   4.9360
7.5900   6.5848
8.1000   -15.0207
8.6100   -18.4137
9.1200   -9.5166
9.6300   -2.1749
10.1400   -9.8664
10.6500   -4.1516
11.1600   14.7991
11.6700   1.9012
12.1800   -16.6897
12.6900   -17.2254
13.2000   -25.4494
13.7100   -7.5053
14.2200   4.2179
14.7300   15.7170
15.2400   16.2061
15.7500   3.3562
16.2700   -15.4098
16.7800   12.4799
17.2900   -7.7818
17.8000   -21.8360
18.3100   14.0708
18.8200   25.6331
19.3300   -1.1246
19.8400   -11.4642
20.3500   11.8141
20.8600   -9.1685
21.3700   -1.3853
21.8800   5.9047
22.3900   2.7711
22.9000   17.1486
23.4100   11.5504
23.9200   7.4089
24.4300   5.4448
24.9400   5.0233
25.4500   11.9495
25.9600   3.4649
26.4700   3.4184
26.9900   33.7612
27.5000   18.3712
28.0100   -13.4364
28.5200   -1.4200
29.0300   32.8543
29.5400   35.5811
30.0500   9.3741
30.5600   -9.7690
31.0700   -3.3085
31.5800   7.5295
32.0900   42.4275
32.6000   25.0018
33.1100   10.0719
33.6200   -11.0773
34.1300   -10.0523
34.6400   -1.9346
35.1500   -19.0106
35.6600   -12.6757
36.1700   -2.7479
36.6800   0.2814
37.1900   7.3391
37.7100   -38.9515
38.2200   -39.1437
38.7300   -11.3817
39.2400   -30.2784
39.7500   -20.6969
40.2600   -40.2948
40.7700   -20.0834
41.2800   26.3453
41.7900   25.6112
42.3000   19.6860
42.8100   12.6102
43.3200   7.6098
43.8300   -0.0055
44.3400   -24.7693
44.8500   -33.0909
45.3600   -34.0623
45.8700   -10.2839
46.3800   -6.1634
46.8900   -10.5492
47.4000   -9.0070
47.9100   -18.9641
48.4300   -23.0412
48.9400   -8.9587
49.4500   -3.3200
49.9600   -15.1260
50.4700   19.1162
50.9800   9.1066
51.4900   -2.6146
52.0000   19.2001
52.5100   -5.3294
53.0200   -12.5005
53.5300   -37.5368
54.0400   -31.7490
54.5500   5.7351
55.0600   28.5439
55.5700   18.4404
56.0800   20.6465
56.5900   3.7360
57.1000   23.8795
57.6100   18.6516
58.1200   5.0228
58.6300   -3.9587
59.1500   14.3165
59.6600   10.5108
60.1700   18.9317
60.6800   -18.7703
61.1900   -13.8802
61.7000   -40.8773
62.2100   -10.1628
62.7200   5.3123
63.2300   16.8024
63.7400   1.5267
64.2500   27.3493
64.7600   0.7705
65.2700   14.4136
65.7800   24.4126
66.2900   17.2300
66.8000   20.6520
67.3100   36.8286
67.8200   8.1133
68.3300   23.9701
68.8400   2.6400
69.3500   39.4585
69.8700   -3.7529
70.3800   22.6876
70.8900   16.2056
71.4000   30.8645
71.9100   18.3262
72.4200   19.5272
72.9300   28.2048
73.4400   20.7517
73.9500   3.7785
74.4600   17.1861
74.9700   8.2283
75.4800   17.4226
75.9900   -8.7601
76.5000   12.5874
77.0100   36.5169
77.5200   67.4702
78.0300   42.4728
78.5400   39.6593
79.0500   36.7247
79.5600   9.9832
80.0700   -2.8040
80.5900   3.3222
81.1000   -3.5302
81.6100   -1.1766
82.1200   21.0590
82.6300   34.5289
83.1400   9.8063
83.6500   -8.0037
84.1600   5.4860
84.6700   11.3805
85.1800   -5.4288
85.6900   17.0245
86.2000   19.2281
86.7100   39.9245
87.2200   -34.9908
87.7300   -50.8067
88.2400   -78.3989
88.7500   -104.4384
89.2600   -163.5077
89.7700   -462.5920
90.2800   -1040.3250
90.7900   94.5750
91.3100   -1324.0500
91.8200   -189.1500
92.3300   -788.5558
92.8400   -167.7363
93.3500   -89.5533
93.8600   -50.2688
94.3700   -56.2031
94.8800   -33.3099
95.3900   -7.4132
95.9000   44.2274
96.4100   34.3063
96.9200   -10.4940
97.4300   -21.6986
97.9400   18.6011
98.4500   -9.2248
98.9600   -16.7260
99.4700   -49.7924
99.9800   -57.0934
100.4900   -15.4221
101.0000   -18.4747
101.5100   -8.4499
102.0300   -0.4357
102.5400   -6.0935
103.0500   10.9300
103.5600   -4.1975
104.0700   -24.2548
104.5800   -6.8235
105.0900   2.7094
105.6000   -14.5925
106.1100   -30.9819
106.6200   -32.4000
107.1300   -42.4245
107.6400   -39.3233
108.1500   -22.9107
108.6600   -34.4148
109.1700   -28.0689
109.6800   -23.2653
110.1900   -5.6172
110.7000   9.6096
111.2100   -16.4676
111.7200   -8.8353
112.2300   -31.5938
112.7500   10.2202
113.2600   0.5756
113.7700   -18.4768
114.2800   -11.4292
114.7900   14.8893
115.3000   39.7277
115.8100   29.5028
116.3200   12.5072
116.8300   15.8003
117.3400   12.9320
117.8500   0.6345
118.3600   0.1669
118.8700   0.8393
119.3800   -20.5780
119.8900   16.7865
120.4000   2.1031
120.9100   -17.4360
121.4200   -10.7664
121.9300   -20.6583
122.4400   -42.8031
122.9500   -43.8777
123.4700   -27.3829
123.9800   20.5739
124.4900   7.6866
125.0000   -8.9721
125.5100   -36.7050
126.0200   -10.7486
126.5300   -10.4453
127.0400   -31.2974
127.5500   -43.0771
128.0600   -27.0265
128.5700   -10.2713
129.0800   -19.4089
129.5900   -41.3005
130.1000   -49.2341
130.6100   -14.6445
131.1200   -18.1445
131.6300   -26.5203
132.1400   -8.5298
132.6500   -29.1636
133.1600   3.5698
133.6700   19.1203
134.1900   -18.8118
134.7000   7.8704
135.2100   2.0864
135.7200   -10.8535
136.2300   -21.4216
136.7400   -11.4437
137.2500   -25.5922
137.7600   -28.5879
138.2700   -18.1315
138.7800   -4.1766
139.2900   1.5107
139.8000   -0.5956
140.3100   -39.1393
140.8200   -34.9774
141.3300   4.4346
141.8400   24.8651
142.3500   27.9376
142.8600   12.3541
143.3700   1.1327
143.8800   10.9413
144.3900   -23.4489
144.9100   -31.2526
145.4200   -37.9384
145.9300   -55.9648
146.4400   -68.2139
146.9500   -49.1678
147.4600   -46.2398
147.9700   -48.5067
148.4800   -38.5390
148.9900   -12.2452
149.5000   -15.1463
150.0100   -29.9413
150.5200   -41.6297
151.0300   -47.3245
151.5400   -53.8558
152.0500   -7.6865
152.5600   -13.4356
153.0700   -43.3129
153.5800   3.8364
154.0900   33.8641
154.6000   30.3434
155.1100   -44.5188
155.6300   -52.1607
156.1400   -13.7148
156.6500   13.5367
157.1600   -0.8988
157.6700   -9.7592
158.1800   -1.7374
158.6900   34.8056
159.2000   24.1693
159.7100   -43.4897
160.2200   -15.9762
160.7300   -5.8412
161.2400   5.6950
161.7500   -46.4547
162.2600   -9.6254
162.7700   18.5319
163.2800   -15.0447
163.7900   -49.4389
164.3000   -55.6592
164.8100   -45.2259
165.3200   -10.0080
165.8300   -16.6181
166.3500   -4.2632
166.8600   5.7101
167.3700   36.3834
167.8800   31.1613
168.3900   -24.9165
168.9000   -35.2105
169.4100   -5.6460
169.9200   -38.9199
170.4300   -38.9733
170.9400   -56.7843
171.4500   -6.6268
171.9600   -1.1102
172.4700   -18.7527
172.9800   -23.5720
173.4900   1.2087
174.0000   -9.4911
174.5100   14.9429
175.0200   -9.7951
175.5300   18.5743
176.0400   -7.4644
176.5500   18.1297
177.0700   8.6728
177.5800   17.9169
178.0900   18.0405
178.6000   11.5934
179.1100   -4.1420
179.6200   3.7730
180.1300   0.7911
180.6400   32.8356
181.1500   -5.8664
181.6600   -11.0358
182.1700   17.3664
182.6800   29.0263
183.1900   -18.0248
183.7000   5.1142
184.2100   -15.2343
184.7200   64.6250
185.2300   24.1683
185.7400   15.8469
186.2500   26.2987
186.7600   20.7488
187.2700   -5.9930
187.7900   20.5871
188.3000   -2.0217
188.8100   14.4579
189.3200   -35.4659
189.8300   -1.3111
190.3400   -16.1477
190.8500   20.0420
191.3600   26.8848
191.8700   52.0927
192.3800   60.6243
192.8900   20.6277
193.4000   -4.2965
193.9100   19.5015
194.4200   14.4565
194.9300   57.5261
195.4400   11.4826
195.9500   16.1522
196.4600   -10.2868
196.9700   10.7707
197.4800   30.4914
197.9900   56.0793
198.5100   30.8223
199.0200   2.7638
199.5300   10.7658
200.0400   35.3408
200.5500   8.7747
201.0600   13.8959
201.5700   -31.6794
202.0800   24.5976
202.5900   24.9625
203.1000   19.3905
203.6100   28.7500
204.1200   12.9648
204.6300   13.4929
205.1400   40.2901
205.6500   39.6006
206.1600   5.0995
206.6700   -4.0514
207.1800   -11.8426
207.6900   14.7753
208.2000   9.8446
208.7100   31.1647
209.2300   57.9709
209.7400   13.3764
210.2500   21.9102
210.7600   58.2001
211.2700   42.3810
211.7800   7.8092
212.2900   28.3854
212.8000   50.2593
213.3100   51.2350
213.8200   16.8703
214.3300   16.0449
214.8400   47.7271
215.3500   62.4331
215.8600   4.5844
216.3700   -31.5793
216.8800   -3.5118
217.3900   10.1915
217.9000   -18.7440
218.4100   19.3735
218.9200   18.9769
219.4300   22.9030
219.9500   19.2378
220.4600   14.2852
220.9700   -0.4434
221.4800   29.4869
221.9900   37.8206
222.5000   41.7142
223.0100   -29.4609
223.5200   -47.2353
224.0300   1.7102
224.5400   -14.6026
225.0500   -31.4094
225.5600   -22.2519
226.0700   -20.7119
226.5800   -9.4318
227.0900   -24.7732
227.6000   -16.7599
228.1100   1.7630
228.6200   14.9773
229.1300   26.8268
229.6400   35.6936
230.1500   60.1960
230.6700   48.1673
231.1800   75.7993
231.6900   91.2088
232.2000   86.7947
232.7100   56.8609
233.2200   57.7191
233.7300   9.2465
234.2400   -9.3590
234.7500   50.3643
235.2600   69.4453
235.7700   33.0423
236.2800   -1.7174
236.7900   -25.8997
237.3000   -8.7973
237.8100   -18.7424
238.3200   23.0393
238.8300   17.0803
239.3400   39.2254
239.8500   -0.4421
240.3600   -44.2041
240.8700   -23.0800
241.3900   20.1844
241.9000   6.8639
242.4100   -39.6337
242.9200   4.0469
243.4300   34.1186
243.9400   9.5407
244.4500   18.7297
244.9600   -24.3411
245.4700   -2.6099
245.9800   -25.1465
246.4900   38.8333
247.0000   17.1727
247.5100   -18.2472
248.0200   7.1029
248.5300   15.2533
249.0400   -27.2091
249.5500   -21.8549
250.0600   -4.7376
250.5700   -30.7902
251.0800   -32.5597
251.5900   -7.9917
252.1100   -29.7356
252.6200   -1.6929
253.1300   21.5066
253.6400   27.4414
254.1500   37.5786
254.6600   -4.5652
255.1700   33.2761
255.6800   7.8342
256.1900   -22.0179
256.7000   -10.8727
257.2100   13.3513
257.7200   59.3937
258.2300   41.6962
258.7400   28.5834
259.2500   13.2636
259.7600   -24.7504
260.2700   -8.1567
260.7800   -11.8408
261.2900   10.0811
261.8000   16.0811
262.3100   4.8382
262.8300   -23.4511
263.3400   -7.5210
263.8500   22.7942
264.3600   13.7305
264.8700   25.4174
265.3800   -2.3242
265.8900   -10.3833
266.4000   3.9543
266.9100   -8.5732
267.4200   -33.5553
267.9300   -34.9099
268.4400   7.6196
268.9500   15.3404
269.4600   -0.5790
269.9700   20.4364
270.4800   5.4170
270.9900   -5.0501
271.5000   9.6630
272.0100   -5.1549
272.5200   5.3387
273.0300   -23.9834
273.5500   2.2960
274.0600   36.4696
274.5700   31.6346
275.0800   21.8760
275.5900   11.1776
276.1000   4.2999
276.6100   1.7396
277.1200   -13.6048
277.6300   -4.3067
278.1400   7.6210
278.6500   0.1669
279.1600   -5.9148
279.6700   18.8525
280.1800   13.6949
280.6900   31.3952
281.2000   53.8456
281.7100   10.7158
282.2200   -26.1593
282.7300   32.4393
283.2400   28.9971
283.7500   48.4451
284.2700   32.5804
284.7800   -11.7067
285.2900   2.4574
285.8000   2.6708
286.3100   2.6345
286.8200   58.1638
287.3300   41.2217
287.8400   62.6899
288.3500   26.5833
288.8600   44.4786
289.3700   -4.2110
289.8800   44.9366
290.3900   32.2729
290.9000   69.1919
291.4100   52.1409
291.9200   83.8063
292.4300   12.7541
292.9400   26.0710
293.4500   43.0360
293.9600   38.8446
294.4700   20.8711
294.9900   22.5499
295.5000   1.4046
296.0100   -13.7554
296.5200   6.4310
297.0300   43.2220
297.5400   10.6504
298.0500   37.4969
298.5600   73.3755
299.0700   59.4410
299.5800   11.7178
300.0900   9.5502
300.6000   18.4337
301.1100   -10.6163
301.6200   -3.7972
302.1300   37.4074
302.6400   33.6631
303.1500   34.7823
303.6600   -6.1334
304.1700   26.0064
304.6800   27.6132
305.1900   19.0322
305.7100   -11.7449
306.2200   -10.9833
306.7300   -5.2652
307.2400   26.5856
307.7500   -4.1265
308.2600   -7.8327
308.7700   -17.0469
309.2800   6.8361
309.7900   16.4866
310.3000   42.0693
310.8100   37.3288
311.3200   53.5492
311.8300   22.8618
312.3400   35.1424
312.8500   40.4291
313.3600   44.1821
313.8700   4.6463
314.3800   17.6782
314.8900   -24.9752
315.4000   8.5561
315.9100   17.7135
316.4300   24.5281
316.9400   22.0593
317.4500   44.0087
317.9600   20.5894
318.4700   68.7850
318.9800   86.6150
319.4900   98.0150
320.0000   36.1198
320.5100   46.3013
321.0200   11.5237
321.5300   0.7011
322.0400   -15.4118
322.5500   9.3756
323.0600   38.9506
323.5700   40.7159
324.0800   18.1230
324.5900   25.7622
325.1000   9.3063
325.6100   -13.4504
326.1200   -22.0319
326.6300   4.5794
327.1500   30.9899
327.6600   34.8864
328.1700   32.7787
328.6800   16.0174
329.1900   -35.8164
329.7000   -12.5780
330.2100   12.3066
330.7200   33.1831
331.2300   -11.1382
331.7400   9.4961
332.2500   -28.6993
332.7600   14.8869
333.2700   -4.4837
333.7800   7.9397
334.2900   -32.5229
334.8000   -0.5422
335.3100   31.5802
335.8200   15.3492
336.3300   24.9083
336.8400   34.8233
337.3500   48.5718
337.8700   42.4138
338.3800   3.0214
338.8900   -16.5191
339.4000   -17.8352
339.9100   20.7292
340.4200   10.4000
340.9300   -5.4866
341.4400   -9.2373
341.9500   -0.4862
342.4600   9.9070
342.9700   40.5560
343.4800   21.9731
343.9900   1.0622
344.5000   5.4417
345.0100   33.5939
345.5200   33.4667
346.0300   23.2246
346.5400   -570.5235
347.0500   16.2352
347.5600   32.3688
348.0700   15.2513
348.5900   36.4858
349.1000   42.3809
349.6100   26.1603
350.1200   36.8273
350.6300   31.6002
351.1400   -9.5457
351.6500   0.3432
352.1600   18.8089
352.6700   26.0577
353.1800   22.3329
353.6900   -28.5797
354.2000   -37.4905
354.7100   -43.9163
355.2200   20.6811
355.7300   44.9244
356.2400   -28.4619
356.7500   -12.4234
357.2600   13.4629
357.7700   22.3218
358.2800   15.0551
358.7900   38.3057
359.3100   25.6117
359.8200   -20.2621
360.3300   -55.6862
360.8400   -30.3155
361.3500   -25.3339
361.8600   -10.6775
362.3700   -20.6767
362.8800   -17.1920
363.3900   1.8473
363.9000   13.0143
364.4100   23.7522
364.9200   8.0660
365.4300   58.4676
365.9400   30.5821
366.4500   3.0229
366.9600   -6.4884
367.4700   -11.5709
367.9800   23.0015
368.4900   48.1701
369.0000   -6.9039
369.5100   20.1866
370.0300   27.0704
370.5400   36.7314
371.0500   94.1859
371.5600   40.7688
372.0700   -3.9230
372.5800   -16.9766
373.0900   -10.6434
373.6000   12.1020
374.1100   -2.3543
374.6200   -5.2412
375.1300   4.2589
375.6400   16.8300
376.1500   27.3721
376.6600   -0.6295
377.1700   28.1132
377.6800   16.9223
378.1900   1.7488
