#----------------------------------
# BOTDR
# DSTS: v.07.1
# Fri Oct 22 14:19:26 2021
#
# Channel No  = 0
# Partial   = 0
# Partial Start  = 0.00
# Partial End  = 3112.57
# Fibre Length    [m]   = 3112.57  0.00
# Fiber Delay    [m]   = 112.57
# Connection Point    [m]   = 192.66
# Rpt.period      [us]  = 65
# Pulse width     [ns]  = 30
# Frequency Start [MHz] = 10690.00
# Frequency End:  [MHz] = 10990.00
# Frequency Step: [MHz] = 5.00
# No.Averages:    [-]   = 12000
# Sampling Rate   [-]   = 0 (200.00MSs, spatial step = 0.50m)
# Input Range     [-]   = 2 (1V)
# Pulse Delay     [m]   = 100
# Post Pulse Data [m]   = 0
# Fiber Type      [-]   = CH4 Land
# Fiber  temperature [C] = 27.00
# Fiber  Bril Frequency  [MHz] = 10840.00
# Fiber  Strain Coefficient  [ue/MHz] = 18.9150
# Fiber Temperature Coefficient [C/MHz] = 0.9765
# Fiber Refractive Index = 1.4682
# Fiber Sigma = 0.2000
#
#----------------------------------
6104

-112.5700   10840.0000
-112.0700   10840.0000
-111.5700   10840.0000
-111.0700   10840.0000
-110.5700   10840.0000
-110.0700   10840.0000
-109.5700   10840.0000
-109.0700   10840.0000
-108.5700   10840.0000
-108.0700   10840.0000
-107.5700   10840.0000
-107.0700   10840.0000
-106.5700   10840.0000
-106.0700   10840.0000
-105.5700   10840.0000
-105.0700   10840.0000
-104.5700   10840.0000
-104.0700   10840.0000
-103.5700   10840.0000
-103.0700   10840.0000
-102.5700   10840.0000
-102.0700   10840.0000
-101.5700   10840.0000
-101.0700   10840.0000
-100.5700   10840.0000
-100.0700   10840.0000
-99.5700   10840.0000
-99.0700   10840.0000
-98.5700   10840.0000
-98.0700   10840.0000
-97.5700   10840.0000
-97.0700   10840.0000
-96.5700   10840.0000
-96.0700   10840.0000
-95.5700   10840.0000
-95.0700   10840.0000
-94.5700   10840.0000
-94.0700   10840.0000
-93.5700   10840.0000
-93.0700   10840.0000
-92.5700   10840.0000
-92.0700   10840.0000
-91.5700   10840.0000
-91.0700   10840.0000
-90.5700   10840.0000
-90.0700   10840.0000
-89.5700   10840.0000
-89.0700   10840.0000
-88.5700   10840.0000
-88.0700   10840.0000
-87.5700   10840.0000
-87.0700   10840.0000
-86.5700   10840.0000
-86.0700   10840.0000
-85.5700   10840.0000
-85.0700   10840.0000
-84.5700   10840.0000
-84.0700   10840.0000
-83.5700   10840.0000
-83.0700   10840.0000
-82.5700   10840.0000
-82.0700   10840.0000
-81.5700   10840.0000
-81.0700   10840.0000
-80.5700   10840.0000
-80.0700   10840.0000
-79.5700   10840.0000
-79.0700   10840.0000
-78.5700   10840.0000
-78.0700   10840.0000
-77.5700   10840.0000
-77.0700   10840.0000
-76.5700   10840.0000
-76.0700   10840.0000
-75.5700   10840.0000
-75.0700   10840.0000
-74.5700   10840.0000
-74.0700   10840.0000
-73.5700   10840.0000
-73.0700   10840.0000
-72.5700   10840.0000
-72.0700   10840.0000
-71.5700   10840.0000
-71.0700   10840.0000
-70.5700   10840.0000
-70.0700   10840.0000
-69.5700   10840.0000
-69.0700   10840.0000
-68.5700   10840.0000
-68.0700   10840.0000
-67.5700   10840.0000
-67.0700   10840.0000
-66.5700   10840.0000
-66.0700   10840.0000
-65.5700   10840.0000
-65.0700   10840.0000
-64.5700   10840.0000
-64.0700   10840.0000
-63.5700   10840.0000
-63.0700   10840.0000
-62.5700   10840.0000
-62.0700   10840.0000
-61.5700   10840.0000
-61.0700   10840.0000
-60.5700   10840.0000
-60.0700   10840.0000
-59.5700   10840.0000
-59.0700   10840.0000
-58.5700   10840.0000
-58.0700   10840.0000
-57.5700   10840.0000
-57.0700   10840.0000
-56.5700   10840.0000
-56.0700   10840.0000
-55.5700   10840.0000
-55.0700   10840.0000
-54.5700   10840.0000
-54.0700   10840.0000
-53.5700   10840.0000
-53.0700   10840.0000
-52.5700   10840.0000
-52.0700   10840.0000
-51.5700   10840.0000
-51.0700   10840.0000
-50.5700   10840.0000
-50.0700   10840.0000
-49.5700   10840.0000
-49.0700   10840.0000
-48.5700   10840.0000
-48.0700   10840.0000
-47.5700   10840.0000
-47.0700   10840.0000
-46.5700   10840.0000
-46.0700   10840.0000
-45.5700   10840.0000
-45.0700   10840.0000
-44.5700   10840.0000
-44.0700   10840.0000
-43.5700   10840.0000
-43.0700   10840.0000
-42.5700   10840.0000
-42.0700   10840.0000
-41.5700   10840.0000
-41.0700   10840.0000
-40.5700   10840.0000
-40.0700   10840.0000
-39.5700   10840.0000
-39.0700   10840.0000
-38.5700   10840.0000
-38.0700   10840.0000
-37.5700   10840.0000
-37.0700   10840.0000
-36.5700   10840.0000
-36.0700   10840.0000
-35.5700   10840.0000
-35.0700   10840.0000
-34.5700   10840.0000
-34.0700   10840.0000
-33.5700   10840.0000
-33.0700   10840.0000
-32.5700   10840.0000
-32.0700   10840.0000
-31.5700   10840.0000
-31.0700   10840.0000
-30.5700   10840.0000
-30.0700   10840.0000
-29.5700   10840.0000
-29.0700   10840.0000
-28.5700   10840.0000
-28.0700   10840.0000
-27.5700   10840.0000
-27.0700   10840.0000
-26.5700   10840.0000
-26.0700   10840.0000
-25.5700   10840.0000
-25.0700   10840.0000
-24.5700   10840.0000
-24.0700   10840.0000
-23.5700   10840.0000
-23.0700   10840.0000
-22.5700   10840.0000
-22.0700   10840.0000
-21.5700   10840.0000
-21.0700   10840.0000
-20.5700   10840.0000
-20.0700   10840.0000
-19.5700   10840.0000
-19.0700   10840.0000
-18.5700   10840.0000
-18.0700   10840.0000
-17.5700   10840.0000
-17.0700   10840.0000
-16.5700   10840.0000
-16.0700   10840.0000
-15.5700   10840.0000
-15.0700   10840.0000
-14.5700   10840.0000
-14.0700   10840.0000
-13.5700   10840.0000
-13.0700   10840.0000
-12.5700   10840.0000
-12.0700   10840.0000
-11.5700   10840.0000
-11.0700   10840.0000
-10.5700   10840.0000
-10.0700   10840.0000
-9.5700   10840.0000
-9.0700   10840.0000
-8.5700   10840.0000
-8.0700   10840.0000
-7.5700   10840.0000
-7.0700   10840.0000
-6.5700   10840.0000
-6.0700   10840.0000
-5.5700   10840.0000
-5.0700   10840.0000
-4.5700   10840.0000
-4.0700   10840.0000
-3.5700   10840.0000
-3.0700   10840.0000
-2.5700   10840.0000
-2.0700   10840.0000
-1.5700   10840.0000
-1.0700   10820.0337
-0.5700   10819.1167
-0.0700   10818.4492
0.4400   10818.1913
0.9500   10817.3614
1.4600   10814.6693
1.9700   10813.0367
2.4800   10809.3395
2.9900   10805.2860
3.5000   10801.4518
4.0100   10801.7441
4.5200   10804.3460
5.0300   10812.0392
5.5500   10822.6715
6.0600   10828.8921
6.5700   10832.8547
7.0800   10833.6865
7.5900   10834.5088
8.1000   10834.5764
8.6100   10832.8361
9.1200   10832.8371
9.6300   10834.0253
10.1400   10834.7300
10.6500   10835.3746
11.1600   10835.0773
11.6700   10834.7861
12.1800   10835.4394
12.6900   10835.1052
13.2000   10836.1419
13.7100   10836.3205
14.2200   10836.7198
14.7300   10838.1838
15.2400   10838.7948
15.7500   10838.9421
16.2700   10839.6098
16.7800   10839.4807
17.2900   10839.4659
17.8000   10839.1925
18.3100   10838.6954
18.8200   10838.4780
19.3300   10838.7892
19.8400   10839.8754
20.3500   10840.0944
20.8600   10839.5765
21.3700   10839.2860
21.8800   10838.8920
22.3900   10839.7339
22.9000   10840.2872
23.4100   10840.2634
23.9200   10840.4530
24.4300   10838.8525
24.9400   10839.4029
25.4500   10839.8246
25.9600   10839.1529
26.4700   10838.6189
26.9900   10838.5446
27.5000   10838.1795
28.0100   10838.5383
28.5200   10838.1514
29.0300   10838.8708
29.5400   10837.9410
30.0500   10838.0200
30.5600   10838.6109
31.0700   10840.1607
31.5800   10839.3354
32.0900   10839.6956
32.6000   10839.4775
33.1100   10840.2419
33.6200   10839.0038
34.1300   10839.3072
34.6400   10838.9612
35.1500   10838.1843
35.6600   10839.0146
36.1700   10840.9373
36.6800   10841.2137
37.1900   10841.7951
37.7100   10841.6557
38.2200   10840.9067
38.7300   10842.2589
39.2400   10842.2338
39.7500   10841.1893
40.2600   10841.6617
40.7700   10840.8965
41.2800   10841.2512
41.7900   10841.6392
42.3000   10841.2760
42.8100   10841.4068
43.3200   10841.7462
43.8300   10841.1199
44.3400   10840.7143
44.8500   10840.6276
45.3600   10840.2622
45.8700   10839.7719
46.3800   10840.1556
46.8900   10840.5086
47.4000   10840.4756
47.9100   10840.8771
48.4300   10840.3043
48.9400   10839.9271
49.4500   10840.8743
49.9600   10841.6298
50.4700   10841.7437
50.9800   10841.8312
51.4900   10841.4454
52.0000   10840.3914
52.5100   10840.6252
53.0200   10841.1737
53.5300   10841.6526
54.0400   10841.8798
54.5500   10842.2217
55.0600   10841.3631
55.5700   10841.6316
56.0800   10841.3807
56.5900   10841.7853
57.1000   10841.3930
57.6100   10841.2685
58.1200   10841.0553
58.6300   10840.6839
59.1500   10840.3826
59.6600   10840.0611
60.1700   10839.8172
60.6800   10839.4958
61.1900   10839.5220
61.7000   10839.4696
62.2100   10839.8561
62.7200   10839.1021
63.2300   10839.3789
63.7400   10840.4130
64.2500   10840.4596
64.7600   10839.9892
65.2700   10839.7014
65.7800   10839.3285
66.2900   10839.2831
66.8000   10839.8962
67.3100   10839.0394
67.8200   10839.5035
68.3300   10841.3554
68.8400   10840.8986
69.3500   10840.8286
69.8700   10840.5293
70.3800   10839.8762
70.8900   10840.2791
71.4000   10840.3615
71.9100   10840.3693
72.4200   10840.0521
72.9300   10840.4148
73.4400   10840.3437
73.9500   10840.4668
74.4600   10841.1093
74.9700   10840.3832
75.4800   10840.3720
75.9900   10840.6182
76.5000   10841.4196
77.0100   10840.9035
77.5200   10840.4049
78.0300   10840.7746
78.5400   10841.7929
79.0500   10840.5389
79.5600   10839.6435
80.0700   10839.1188
80.5900   10839.1007
81.1000   10838.6471
81.6100   10838.9774
82.1200   10839.0557
82.6300   10839.0372
83.1400   10839.1859
83.6500   10839.8537
84.1600   10838.8567
84.6700   10838.8429
85.1800   10836.3115
85.6900   10832.4188
86.2000   10819.9027
86.7100   10802.3435
87.2200   10774.2075
87.7300   10765.5154
88.2400   10756.0464
88.7500   10752.4255
89.2600   10744.0298
89.7700   10735.1004
90.2800   10722.7794
90.7900   10721.1651
91.3100   10705.0370
91.8200   10700.8930
92.3300   10725.0000
92.8400   10802.9609
93.3500   10813.2396
93.8600   10817.2578
94.3700   10818.5357
94.8800   10819.2749
95.3900   10820.7976
95.9000   10820.6013
96.4100   10819.4787
96.9200   10819.9422
97.4300   10819.8352
97.9400   10821.0721
98.4500   10819.9466
98.9600   10821.5082
99.4700   10821.2888
99.9800   10822.6291
100.4900   10822.9445
101.0000   10823.9154
101.5100   10822.8519
102.0300   10822.6910
102.5400   10822.7030
103.0500   10822.4060
103.5600   10822.0087
104.0700   10823.9250
104.5800   10823.0700
105.0900   10822.8838
105.6000   10822.3428
106.1100   10823.2917
106.6200   10822.3094
107.1300   10823.0918
107.6400   10821.8661
108.1500   10822.1337
108.6600   10822.6062
109.1700   10822.5580
109.6800   10821.6289
110.1900   10820.7780
110.7000   10820.8441
111.2100   10822.2773
111.7200   10822.3728
112.2300   10823.0966
112.7500   10822.2011
113.2600   10823.3263
113.7700   10821.6927
114.2800   10821.1478
114.7900   10821.7391
115.3000   10823.3725
115.8100   10821.8637
116.3200   10821.0067
116.8300   10820.1873
117.3400   10821.3273
117.8500   10821.0558
118.3600   10821.7583
118.8700   10822.4625
119.3800   10824.5278
119.8900   10823.8024
120.4000   10823.8446
120.9100   10822.6167
121.4200   10823.4433
121.9300   10823.0268
122.4400   10824.2036
122.9500   10823.7322
123.4700   10823.0327
123.9800   10822.8647
124.4900   10824.3505
125.0000   10824.3580
125.5100   10823.3930
126.0200   10824.0947
126.5300   10824.9032
127.0400   10825.5129
127.5500   10825.8390
128.0600   10825.0395
128.5700   10824.8825
129.0800   10823.8068
129.5900   10823.9857
130.1000   10824.8477
130.6100   10825.1662
131.1200   10824.5789
131.6300   10824.1611
132.1400   10823.5824
132.6500   10824.8736
133.1600   10826.0528
133.6700   10826.1221
134.1900   10825.1509
134.7000   10826.1929
135.2100   10825.0911
135.7200   10825.9272
136.2300   10826.4021
136.7400   10825.3766
137.2500   10826.5041
137.7600   10826.9036
138.2700   10825.0194
138.7800   10825.6429
139.2900   10825.0307
139.8000   10824.9088
140.3100   10824.1915
140.8200   10824.2208
141.3300   10825.4151
141.8400   10824.4252
142.3500   10823.9634
142.8600   10825.3251
143.3700   10826.3315
143.8800   10826.1103
144.3900   10826.9623
144.9100   10828.0119
145.4200   10828.5536
145.9300   10828.0924
146.4400   10829.1543
146.9500   10829.0498
147.4600   10830.1021
147.9700   10828.8269
148.4800   10827.6506
148.9900   10828.0042
149.5000   10828.9344
150.0100   10828.7167
150.5200   10828.2896
151.0300   10827.1320
151.5400   10826.3727
152.0500   10825.5665
152.5600   10824.5011
153.0700   10825.6575
153.5800   10825.4308
154.0900   10825.5170
154.6000   10825.8732
155.1100   10826.9821
155.6300   10826.8970
156.1400   10825.8810
156.6500   10825.9795
157.1600   10825.8948
157.6700   10823.4732
158.1800   10824.4555
158.6900   10824.7124
159.2000   10824.3126
159.7100   10824.3183
160.2200   10825.1545
160.7300   10825.7520
161.2400   10825.7311
161.7500   10824.4456
162.2600   10825.6756
162.7700   10824.2360
163.2800   10824.1393
163.7900   10824.5315
164.3000   10824.3311
164.8100   10824.6796
165.3200   10824.1113
165.8300   10822.8610
166.3500   10823.3419
166.8600   10824.0967
167.3700   10824.3308
167.8800   10824.6689
168.3900   10825.7478
168.9000   10825.6577
169.4100   10824.6912
169.9200   10825.1291
170.4300   10825.6385
170.9400   10823.8021
171.4500   10824.3248
171.9600   10824.7890
172.4700   10824.8690
172.9800   10824.8182
173.4900   10826.0882
174.0000   10825.6634
174.5100   10825.5345
175.0200   10826.7475
175.5300   10827.1082
176.0400   10825.6131
176.5500   10825.6945
177.0700   10826.1248
177.5800   10825.1219
178.0900   10825.9227
178.6000   10825.3264
179.1100   10824.6505
179.6200   10825.1720
180.1300   10825.2644
180.6400   10826.4846
181.1500   10826.5709
181.6600   10825.9317
182.1700   10825.1769
182.6800   10826.1718
183.1900   10825.9287
183.7000   10825.2688
184.2100   10825.0188
184.7200   10824.2232
185.2300   10822.6104
185.7400   10822.9273
186.2500   10822.5716
186.7600   10824.0732
187.2700   10824.8698
187.7900   10825.0272
188.3000   10823.8017
188.8100   10822.9719
189.3200   10823.0360
189.8300   10824.6608
190.3400   10824.6695
190.8500   10824.6051
191.3600   10823.7728
191.8700   10823.8365
192.3800   10823.3576
192.8900   10823.6847
193.4000   10824.1590
193.9100   10824.6795
194.4200   10824.9823
194.9300   10824.3949
195.4400   10823.3934
195.9500   10824.0127
196.4600   10823.1909
196.9700   10824.3480
197.4800   10823.9558
197.9900   10825.9791
198.5100   10826.5020
199.0200   10825.3229
199.5300   10825.0220
200.0400   10824.7094
200.5500   10823.9717
201.0600   10825.1353
201.5700   10824.8261
202.0800   10826.3308
202.5900   10825.0657
203.1000   10823.9655
203.6100   10823.6118
204.1200   10823.6650
204.6300   10824.1587
205.1400   10824.3441
205.6500   10823.7930
206.1600   10825.7878
206.6700   10825.6151
207.1800   10824.8733
207.6900   10824.6238
208.2000   10826.2384
208.7100   10825.6643
209.2300   10826.5890
209.7400   10825.8763
210.2500   10825.9031
210.7600   10824.0706
211.2700   10824.2827
211.7800   10824.2226
212.2900   10825.1274
212.8000   10825.6767
213.3100   10825.2409
213.8200   10824.0325
214.3300   10823.7998
214.8400   10824.0990
215.3500   10824.9275
215.8600   10823.1760
216.3700   10823.9164
216.8800   10823.5689
217.3900   10824.6948
217.9000   10824.5755
218.4100   10825.9728
218.9200   10825.5131
219.4300   10825.9528
219.9500   10824.4131
220.4600   10823.6633
220.9700   10822.6060
221.4800   10824.6584
221.9900   10825.4594
222.5000   10826.5229
223.0100   10823.7850
223.5200   10823.9992
224.0300   10823.2690
224.5400   10823.2164
225.0500   10823.0986
225.5600   10823.4434
226.0700   10822.9340
226.5800   10822.2226
227.0900   10822.1712
227.6000   10823.8599
228.1100   10824.6669
228.6200   10825.8895
229.1300   10824.5998
229.6400   10823.7934
230.1500   10823.0455
230.6700   10823.8783
231.1800   10823.8653
231.6900   10825.1258
232.2000   10825.3390
232.7100   10824.4722
233.2200   10823.6882
233.7300   10825.2409
234.2400   10825.3144
234.7500   10825.0689
235.2600   10823.9067
235.7700   10824.9215
236.2800   10824.0955
236.7900   10823.8989
237.3000   10824.9962
237.8100   10824.4508
238.3200   10822.9562
238.8300   10823.9791
239.3400   10825.0393
239.8500   10825.6509
240.3600   10825.6371
240.8700   10825.3359
241.3900   10825.2605
241.9000   10825.2685
242.4100   10824.2199
242.9200   10825.1105
243.4300   10824.2216
243.9400   10824.3863
244.4500   10825.7006
244.9600   10825.3128
245.4700   10824.9274
245.9800   10823.9940
246.4900   10823.3289
247.0000   10823.3601
247.5100   10823.4863
248.0200   10825.0410
248.5300   10825.3950
249.0400   10825.3653
249.5500   10824.7252
250.0600   10827.1477
250.5700   10824.5908
251.0800   10824.9078
251.5900   10824.9519
252.1100   10824.4140
252.6200   10822.7677
253.1300   10826.2614
253.6400   10825.0185
254.1500   10824.9687
254.6600   10825.7382
255.1700   10826.1164
255.6800   10825.7458
256.1900   10825.8769
256.7000   10824.6625
257.2100   10825.1168
257.7200   10825.1510
258.2300   10825.9696
258.7400   10824.2948
259.2500   10824.3259
259.7600   10824.8279
260.2700   10827.0407
260.7800   10825.3284
261.2900   10825.5871
261.8000   10825.6742
262.3100   10826.0039
262.8300   10827.3621
263.3400   10827.7943
263.8500   10825.2872
264.3600   10825.1038
264.8700   10824.7238
265.3800   10825.2875
265.8900   10825.8795
266.4000   10825.6462
266.9100   10826.3428
267.4200   10826.8113
267.9300   10826.6863
268.4400   10826.0154
268.9500   10825.2130
269.4600   10825.4036
269.9700   10825.5332
270.4800   10826.1648
270.9900   10825.8733
271.5000   10827.1401
272.0100   10825.5814
272.5200   10825.2085
273.0300   10823.8576
273.5500   10826.1981
274.0600   10824.3875
274.5700   10825.6574
275.0800   10825.7540
275.5900   10825.8600
276.1000   10825.7954
276.6100   10825.4818
277.1200   10825.5130
277.6300   10826.0284
278.1400   10825.3013
278.6500   10825.1636
279.1600   10825.3897
279.6700   10825.2425
280.1800   10825.2078
280.6900   10826.5762
281.2000   10825.9541
281.7100   10827.4255
282.2200   10827.3765
282.7300   10826.4556
283.2400   10825.8284
283.7500   10827.7037
284.2700   10826.4619
284.7800   10826.8497
285.2900   10827.1709
285.8000   10826.1574
286.3100   10825.4836
286.8200   10825.5728
287.3300   10825.8657
287.8400   10825.6383
288.3500   10825.8911
288.8600   10825.9548
289.3700   10824.4026
289.8800   10825.6889
290.3900   10825.8497
290.9000   10826.3978
291.4100   10824.6262
291.9200   10826.3827
292.4300   10826.6127
292.9400   10826.1227
293.4500   10824.3854
293.9600   10824.4586
294.4700   10826.2524
294.9900   10826.8569
295.5000   10826.0660
296.0100   10824.8803
296.5200   10825.3485
297.0300   10826.9627
297.5400   10824.8127
298.0500   10825.8257
298.5600   10824.7914
299.0700   10826.4594
299.5800   10826.5083
300.0900   10826.8599
300.6000   10825.8668
301.1100   10825.0848
301.6200   10826.1407
302.1300   10826.9550
302.6400   10824.5818
303.1500   10823.5262
303.6600   10824.0860
304.1700   10826.0327
304.6800   10825.7501
305.1900   10824.9300
305.7100   10826.4201
306.2200   10826.8565
306.7300   10825.3789
307.2400   10827.3354
307.7500   10826.5580
308.2600   10826.3917
308.7700   10824.2967
309.2800   10824.8843
309.7900   10825.4024
310.3000   10824.9172
310.8100   10824.6725
311.3200   10826.2518
