#----------------------------------
# BOTDR
# DSTS: v.07.1
# Fri Oct 22 13:49:51 2021
#
# Channel No  = 1
# Partial   = 0
# Partial Start  = 0.00
# Partial End  = 5118.55
# Fibre Length    [m]   = 5118.55  0.00
# Fiber Delay    [m]   = 118.55
# Connection Point    [m]   = 198.64
# Rpt.period      [us]  = 65
# Pulse width     [ns]  = 40
# Frequency Start [MHz] = 10690.00
# Frequency End:  [MHz] = 10990.00
# Frequency Step: [MHz] = 5.00
# No.Averages:    [-]   = 12000
# Sampling Rate   [-]   = 2 (50.00MSs, spatial step = 2.00m)
# Input Range     [-]   = 2 (1V)
# Pulse Delay     [m]   = 100
# Post Pulse Data [m]   = 0
# Fiber Type      [-]   = CH4 Land
# Fiber  temperature [C] = 27.00
# Fiber  Bril Frequency  [MHz] = 10840.00
# Fiber  Strain Coefficient  [ue/MHz] = 18.9150
# Fiber Temperature Coefficient [C/MHz] = 0.9765
# Fiber Refractive Index = 1.4682
# Fiber Sigma = 0.2000
#
#----------------------------------
2509

-118.5500   0.0000
-116.5500   0.0000
-114.5500   0.0000
-112.5500   0.0000
-110.5500   0.0000
-108.5500   0.0000
-106.5500   0.0000
-104.5500   0.0000
-102.5500   0.0000
-100.5500   0.0000
-98.5500   0.0000
-96.5500   0.0000
-94.5500   0.0000
-92.5500   0.0000
-90.5500   0.0000
-88.5500   0.0000
-86.5500   0.0000
-84.5500   0.0000
-82.5500   0.0000
-80.5500   0.0000
-78.5500   0.0000
-76.5500   0.0000
-74.5500   0.0000
-72.5500   0.0000
-70.5500   0.0000
-68.5500   0.0000
-66.5500   0.0000
-64.5500   0.0000
-62.5500   0.0000
-60.5500   0.0000
-58.5500   0.0000
-56.5500   0.0000
-54.5500   0.0000
-52.5500   0.0000
-50.5500   0.0000
-48.5500   0.0000
-46.5500   0.0000
-44.5500   0.0000
-42.5500   0.0000
-40.5500   0.0000
-38.5500   0.0000
-36.5500   0.0000
-34.5500   0.0000
-32.5500   0.0000
-30.5500   0.0000
-28.5500   0.0000
-26.5500   0.0000
-24.5500   0.0000
-22.5500   0.0000
-20.5500   0.0000
-18.5500   0.0000
-16.5500   0.0000
-14.5500   0.0000
-12.5500   0.0000
-10.5500   0.0000
-8.5500   0.0000
-6.5500   0.0000
-4.5500   0.0000
-2.5500   -134.0315
-0.5500   -41.0210
1.4900   -41.2874
3.5300   798.4961
5.5800   1322.5588
7.6200   367.9977
9.6600   176.6059
11.7000   180.5935
13.7400   219.1670
15.7900   230.9657
17.8300   222.4940
19.8700   225.1964
21.9100   221.7515
23.9500   220.4143
25.9900   222.2711
28.0400   218.2979
30.0800   228.6156
32.1200   235.5106
34.1600   230.7485
36.2000   232.1024
38.2500   241.5955
40.2900   240.5202
42.3300   218.7847
44.3700   212.1436
46.4100   206.2063
48.4600   191.4901
50.5000   191.0678
52.5400   191.6490
54.5800   201.5554
56.6200   204.7634
58.6700   176.0123
60.7100   120.3062
62.7500   103.6649
64.7900   104.4344
66.8300   111.0484
68.8700   123.8819
70.9200   140.8071
72.9600   149.7381
75.0000   151.0349
77.0400   164.2845
79.0800   164.9678
81.1300   155.7122
83.1700   114.3979
85.2100   -463.3293
87.2500   -1422.8135
89.2900   -1666.8355
91.3400   -391.7145
93.3800   -335.8909
95.4200   -310.3631
97.4600   -308.6108
99.5000   -297.3841
101.5500   -281.7593
103.5900   -275.2672
105.6300   -266.1939
107.6700   -264.9236
109.7100   -281.0678
111.7500   -291.9025
113.8000   -283.3288
115.8400   -269.2370
117.8800   -252.9560
119.9200   -235.8189
121.9600   -224.3831
124.0100   -218.8425
126.0500   -224.5815
128.0900   -226.1567
130.1300   -211.1910
132.1700   -199.1795
134.2200   -201.6871
136.2600   -185.9315
138.3000   -180.2095
140.3400   -182.0131
142.3800   -182.2267
144.4300   -145.4253
146.4700   -126.8465
148.5100   -127.0907
150.5500   -129.1653
152.5900   -119.3796
154.6300   -112.2067
156.6800   -138.8941
158.7200   -152.7399
160.7600   -126.0208
162.8000   -105.1419
164.8400   -124.9209
166.8900   -169.1418
168.9300   -180.9391
170.9700   -137.6615
173.0100   -49.7973
175.0500   12.8969
177.1000   9.3621
179.1400   -52.7711
181.1800   -104.4642
183.2200   -100.5640
185.2600   -55.6306
187.3100   -47.8461
189.3500   -84.1676
191.3900   -74.5937
193.4300   -41.4349
195.4700   -64.2202
197.5100   -109.4679
199.5600   -116.8447
201.6000   -99.0822
203.6400   -56.8171
205.6800   -79.5339
207.7200   -140.7208
209.7700   -152.2528
211.8100   -146.1933
213.8500   -138.0007
215.8900   -141.6585
217.9300   -131.2424
219.9800   -141.2627
222.0200   -160.7947
224.0600   -152.7174
226.1000   -125.3717
228.1400   -117.4032
230.1900   -132.7038
232.2300   -146.3758
234.2700   -146.9684
236.3100   -144.6633
238.3500   -138.5772
240.3900   -130.9567
242.4400   -130.1812
244.4800   -167.2130
246.5200   -213.6357
248.5600   -230.5489
250.6000   -209.0671
252.6500   -152.4570
254.6900   -127.5939
256.7300   -169.5627
258.7700   -195.7221
260.8100   -212.1341
262.8600   -206.3822
264.9000   -177.8326
266.9400   -152.3469
268.9800   -143.8910
271.0200   -138.1168
273.0700   -106.0041
275.1100   -60.8659
277.1500   -18.2570
279.1900   -0.6864
281.2300   -2.2490
283.2700   -7.2008
285.3200   -10.8618
287.3600   -22.6939
289.4000   -30.3561
291.4400   -28.6053
293.4800   -33.2145
295.5300   -46.0205
297.5700   -52.7099
299.6100   -59.1391
301.6500   -52.1853
303.6900   -42.1096
305.7400   -46.2454
307.7800   -36.3495
309.8200   -39.2684
311.8600   -56.4838
313.9000   -74.4142
315.9500   -75.5112
317.9900   -72.0599
320.0300   -71.0174
322.0700   -56.8186
324.1100   -31.6953
326.1500   -33.6704
328.2000   -53.7051
330.2400   -56.4694
332.2800   -46.2580
334.3200   -26.9579
336.3600   -23.3224
338.4100   -23.0369
340.4500   -15.6781
342.4900   -6.4520
344.5300   3.8102
346.5700   14.9879
348.6200   20.6909
350.6600   11.5173
352.7000   5.9229
354.7400   25.5233
356.7800   31.0700
358.8300   27.2340
360.8700   15.4058
362.9100   -8.0142
364.9500   -31.4054
366.9900   -45.0536
369.0300   -62.4832
371.0800   -83.8773
373.1200   -96.1539
375.1600   -91.1859
377.2000   -62.2528
379.2400   -65.5200
381.2900   -89.2371
383.3300   -101.6055
385.3700   -110.9925
387.4100   -111.8382
389.4500   -108.2332
391.5000   -103.4768
393.5400   -99.9062
395.5800   -93.4715
397.6200   -100.9981
399.6600   -128.9927
401.7100   -129.2190
403.7500   -113.6442
405.7900   -102.3467
407.8300   -87.2265
409.8700   -70.9405
411.9100   -76.3746
413.9600   -92.3811
416.0000   -105.8395
418.0400   -109.7913
420.0800   -112.6106
422.1200   -106.1558
424.1700   -94.8335
426.2100   -96.0273
428.2500   -92.7836
430.2900   -91.5325
432.3300   -88.2397
434.3800   -89.2365
436.4200   -93.8435
438.4600   -88.0172
440.5000   -57.8592
442.5400   -12.6679
444.5900   31.9498
446.6300   46.6655
448.6700   55.6479
450.7100   64.0264
452.7500   64.7698
454.7900   61.3547
456.8400   72.4293
458.8800   56.3714
460.9200   19.9425
462.9600   5.5725
465.0000   17.1749
467.0500   16.9121
469.0900   -21.3325
471.1300   -94.7363
473.1700   -147.8401
475.2100   -137.1799
477.2600   -139.7901
479.3000   -174.4384
481.3400   -186.1435
483.3800   -189.7678
485.4200   -185.3031
487.4700   -177.0670
489.5100   -164.5045
491.5500   -162.8670
493.5900   -196.3716
495.6300   -242.5051
497.6700   -265.2144
499.7200   -262.9444
501.7600   -271.7485
503.8000   -294.8208
505.8400   -294.0331
507.8800   -292.8129
509.9300   -298.2114
511.9700   -304.1090
514.0100   -301.9001
516.0500   -303.4357
518.0900   -308.1372
520.1400   -305.3083
522.1800   -301.9201
524.2200   -294.4393
526.2600   -258.8991
528.3000   -255.4469
530.3500   -314.8175
532.3900   -343.0075
534.4300   -368.4718
536.4700   -393.7014
538.5100   -404.7979
540.5500   -384.1038
542.6000   -396.0381
544.6400   -408.8886
546.6800   -409.5366
548.7200   -417.4499
550.7600   -421.1310
552.8100   -375.9452
554.8500   -264.3191
556.8900   -164.9613
558.9300   -111.4308
560.9700   -100.4826
563.0200   -131.5407
565.0600   -159.1112
567.1000   -177.7087
569.1400   -176.6156
571.1800   -163.6751
573.2300   -164.7083
575.2700   -172.8663
577.3100   -168.0159
579.3500   -135.0033
581.3900   -92.8237
583.4300   -51.3539
585.4800   -57.9812
587.5200   -78.7368
589.5600   -45.4628
591.6000   9.0534
593.6400   4.8760
595.6900   -6.4577
597.7300   13.9465
599.7700   27.2708
601.8100   -0.7150
603.8500   -59.9887
605.9000   -87.2611
607.9400   -93.0148
609.9800   -87.7346
612.0200   -80.0434
614.0600   -79.8031
616.1100   -112.8230
618.1500   -161.6477
620.1900   -186.0079
622.2300   -206.7245
624.2700   -201.8229
626.3100   -165.0850
628.3600   -130.5116
630.4000   -107.3864
632.4400   -92.3363
634.4800   -82.1574
636.5200   -83.6594
638.5700   -86.3526
640.6100   -92.4599
642.6500   -108.3918
644.6900   -103.4119
646.7300   -95.8631
648.7800   -108.6960
650.8200   -119.2708
652.8600   -140.3690
654.9000   -163.2795
656.9400   -186.5422
658.9900   -172.5391
661.0300   -133.7389
663.0700   -100.4981
665.1100   -92.8878
667.1500   -80.7536
669.1900   -70.9445
671.2400   -59.2011
673.2800   -42.2583
675.3200   -40.4183
677.3600   -37.3706
679.4000   -25.3254
681.4500   1.7506
683.4900   16.9618
685.5300   13.6306
687.5700   17.2450
689.6100   14.5379
691.6600   29.0303
693.7000   38.7461
695.7400   26.3847
697.7800   -3.2239
699.8200   6.1079
701.8700   82.0644
703.9100   143.2796
705.9500   170.5347
707.9900   206.1831
710.0300   225.9640
712.0700   223.8880
714.1200   223.6841
716.1600   222.1657
718.2000   201.2967
720.2400   181.8601
722.2800   167.2846
724.3300   162.6820
726.3700   157.0055
728.4100   137.7491
730.4500   141.8016
732.4900   154.4568
734.5400   158.8761
736.5800   174.2542
738.6200   180.8711
740.6600   174.1766
742.7000   174.4686
744.7500   168.1422
746.7900   156.9722
748.8300   134.0105
750.8700   121.3611
752.9100   118.6987
754.9500   104.9247
757.0000   108.2906
759.0400   104.2776
761.0800   77.3745
763.1200   86.5790
765.1600   88.3771
767.2100   91.8415
769.2500   97.0237
771.2900   87.6281
773.3300   64.7974
775.3700   43.9994
777.4200   24.9781
779.4600   13.1815
781.5000   21.4620
783.5400   23.7015
785.5800   14.1404
787.6300   10.8516
789.6700   9.1918
791.7100   -3.9428
793.7500   3.0792
795.7900   5.6641
797.8300   -13.5214
799.8800   -29.5543
801.9200   2.6327
803.9600   41.4774
806.0000   48.7201
808.0400   42.3958
810.0900   35.6733
812.1300   34.5138
814.1700   26.4444
816.2100   33.5642
818.2500   55.3359
820.3000   49.8870
822.3400   26.3960
824.3800   16.6406
826.4200   10.6808
828.4600   27.4016
830.5100   45.6969
832.5500   46.1736
834.5900   45.0617
836.6300   50.3545
838.6700   36.4422
840.7100   7.8177
842.7600   -4.1514
844.8000   10.8304
846.8400   10.2314
848.8800   10.4790
850.9200   13.1634
852.9700   17.9009
855.0100   21.5590
857.0500   31.5210
859.0900   10.8955
861.1300   -7.3233
863.1800   -13.5639
865.2200   -23.0526
867.2600   -27.0201
869.3000   -12.2185
871.3400   10.5850
873.3900   28.5512
875.4300   6.0933
877.4700   -4.2749
879.5100   14.2607
881.5500   12.0816
883.5900   -38.1718
885.6400   -78.3923
887.6800   -96.3283
889.7200   -91.2023
891.7600   -65.4245
893.8000   -36.5964
895.8500   0.7748
897.8900   36.4204
899.9300   40.4574
901.9700   14.1132
904.0100   3.2249
906.0600   28.2363
908.1000   48.9841
910.1400   14.1919
912.1800   -54.6560
914.2200   -116.2862
916.2700   -131.8151
918.3100   -140.3995
920.3500   -136.3268
922.3900   -126.1001
924.4300   -124.8188
926.4700   -91.7994
928.5200   -43.0488
930.5600   -66.5977
932.6000   -113.5351
934.6400   -121.5289
936.6800   -123.2300
938.7300   -141.2112
940.7700   -162.8835
942.8100   -158.6426
944.8500   -144.1597
946.8900   -126.3046
948.9400   -112.4327
950.9800   -68.8453
953.0200   -39.9286
955.0600   -65.4881
957.1000   -107.0818
959.1500   -128.6122
961.1900   -141.5856
963.2300   -165.7286
965.2700   -146.0442
967.3100   -56.0164
969.3500   73.4955
971.4000   158.3312
973.4400   175.8013
975.4800   169.5573
977.5200   126.0584
979.5600   25.1162
981.6100   -43.4058
983.6500   -72.6967
985.6900   -94.0869
987.7300   -112.9031
989.7700   -97.9406
991.8200   -56.9315
993.8600   -47.7671
995.9000   -64.7711
997.9400   -82.3084
999.9800   -73.3646
1002.0300   -78.1318
1004.0700   -135.2156
1006.1100   -169.1663
1008.1500   -184.7078
1010.1900   -207.9706
1012.2300   -220.3344
1014.2800   -193.7687
1016.3200   -156.4051
1018.3600   -134.5315
1020.4000   -117.7602
1022.4400   -97.6320
1024.4900   -39.2147
1026.5300   -6.0525
1028.5700   -47.2643
1030.6100   -77.4643
1032.6500   -83.0681
1034.7000   -100.4199
1036.7400   -117.1975
1038.7800   -75.0850
1040.8200   -33.0710
1042.8600   -37.4836
1044.9100   -34.2581
1046.9500   -28.3515
1048.9900   -3.9444
1051.0300   -3.7827
1053.0700   -69.3731
1055.1100   -114.2734
1057.1600   -162.0087
1059.2000   -213.9753
1061.2400   -240.2765
1063.2800   -230.9617
1065.3200   -210.0414
1067.3700   -184.4290
1069.4100   -168.5163
1071.4500   -131.7615
1073.4900   -67.8986
1075.5300   -57.9735
1077.5800   -78.7597
1079.6200   -66.5050
1081.6600   -59.5118
1083.7000   -82.8423
1085.7400   -95.6903
1087.7900   -65.1009
1089.8300   -55.0538
1091.8700   -54.4030
1093.9100   -54.1109
1095.9500   -30.6877
1097.9900   11.0037
1100.0400   4.4511
1102.0800   -25.3559
1104.1200   -45.0383
1106.1600   -61.1925
1108.2000   -88.6887
1110.2500   -110.9528
1112.2900   -80.6039
1114.3300   -57.9826
1116.3700   -67.6119
1118.4100   -74.4410
1120.4600   -50.6030
1122.5000   -25.2662
1124.5400   -48.5379
1126.5800   -101.0478
1128.6200   -160.9219
1130.6700   -209.6149
1132.7100   -220.3608
1134.7500   -180.7946
1136.7900   -119.1011
1138.8300   -88.4814
1140.8700   -63.9446
1142.9200   -53.4601
1144.9600   -18.5192
1147.0000   10.8817
1149.0400   -47.1050
1151.0800   -71.5168
1153.1300   -81.7424
1155.1700   -100.0931
1157.2100   -118.2539
1159.2500   -112.7465
1161.2900   -79.1775
1163.3400   -67.1035
1165.3800   -72.2177
1167.4200   -58.6582
1169.4600   -21.4674
1171.5000   -5.5670
1173.5500   -27.6096
1175.5900   -37.6031
1177.6300   -48.9161
1179.6700   -81.5285
1181.7100   -123.3283
1183.7500   -115.8431
1185.8000   -90.0526
1187.8400   -61.0179
1189.8800   -42.0217
1191.9200   -33.3862
1193.9600   8.8673
1196.0100   29.2109
1198.0500   -4.6769
1200.0900   -34.2068
1202.1300   -47.5547
1204.1700   -81.1192
1206.2200   -122.4533
1208.2600   -117.7333
1210.3000   -77.4094
1212.3400   -61.2416
1214.3800   -58.5886
1216.4300   -32.0823
1218.4700   7.9445
1220.5100   7.3356
1222.5500   -29.5971
1224.5900   -46.0013
1226.6300   -65.9958
1228.6800   -105.1519
1230.7200   -124.2285
1232.7600   -90.3583
1234.8000   -62.8228
1236.8400   -53.8925
1238.8900   -56.9083
1240.9300   -29.4578
1242.9700   28.7647
1245.0100   35.1954
1247.0500   -13.4869
1249.1000   -51.4413
1251.1400   -76.9148
1253.1800   -105.3040
1255.2200   -79.2886
1257.2600   -32.1403
1259.3100   -25.6967
1261.3500   -34.0770
1263.3900   -36.5814
1265.4300   -14.6995
1267.4700   19.8199
1269.5100   -11.5318
1271.5600   -72.2510
1273.6000   -106.6619
1275.6400   -119.7605
1277.6800   -144.6988
1279.7200   -134.8343
1281.7700   -81.4992
1283.8100   -63.1407
1285.8500   -56.1463
1287.8900   -38.5318
1289.9300   -10.8267
1291.9800   34.5923
1294.0200   17.8383
1296.0600   -32.7138
1298.1000   -58.0142
1300.1400   -82.7035
1302.1900   -108.8992
1304.2300   -101.1278
1306.2700   -63.9229
1308.3100   -52.6298
1310.3500   -77.6007
1312.3900   -80.1188
1314.4400   -44.4698
1316.4800   -17.9338
1318.5200   -29.9697
1320.5600   -56.5543
1322.6000   -54.7912
1324.6500   -81.8192
1326.6900   -144.5440
1328.7300   -156.0156
1330.7700   -116.4092
1332.8100   -79.6420
1334.8600   -53.0606
1336.9000   -13.9319
1338.9400   41.6071
1340.9800   85.2636
1343.0200   78.4572
1345.0700   10.6613
1347.1100   -49.2107
1349.1500   -86.1973
1351.1900   -122.0775
1353.2300   -116.7192
1355.2700   -51.2849
1357.3200   34.3848
1359.3600   102.9319
1361.4000   133.7018
1363.4400   147.9960
1365.4800   155.6366
1367.5300   163.3085
1369.5700   175.6236
1371.6100   153.0167
1373.6500   95.3097
1375.6900   29.1459
1377.7400   -13.5859
1379.7800   13.3901
1381.8200   84.5916
1383.8600   109.5485
1385.9000   92.2983
1387.9500   82.4036
1389.9900   65.8644
1392.0300   63.4512
1394.0700   53.6346
1396.1100   7.2229
1398.1500   -49.0447
1400.2000   -88.4198
1402.2400   -48.9129
1404.2800   8.7167
1406.3200   57.7157
1408.3600   90.4065
1410.4100   84.3896
1412.4500   38.4018
1414.4900   7.6695
1416.5300   3.6920
1418.5700   43.0835
1420.6200   103.6271
1422.6600   80.8839
1424.7000   -30.7437
1426.7400   -124.3345
1428.7800   -103.0644
1430.8300   -64.8037
1432.8700   -38.7256
1434.9100   -31.6491
1436.9500   -34.3566
1438.9900   -39.8925
1441.0300   -71.0729
1443.0800   -112.6848
1445.1200   -145.1331
1447.1600   -155.7491
1449.2000   -143.6501
1451.2400   -158.8938
1453.2900   -154.7635
1455.3300   -140.4072
1457.3700   -137.3519
1459.4100   -109.6707
1461.4500   -88.5816
1463.5000   -97.2582
1465.5400   -124.4395
1467.5800   -132.6663
1469.6200   -110.5607
1471.6600   -80.9368
1473.7100   -51.0654
1475.7500   7.3728
1477.7900   45.6227
1479.8300   66.3931
1481.8700   68.8097
1483.9100   38.8218
1485.9600   24.7622
1488.0000   31.9781
1490.0400   68.9202
1492.0800   110.8566
1494.1200   110.7566
1496.1700   112.6426
1498.2100   121.8712
1500.2500   110.3089
1502.2900   91.7164
1504.3300   108.2235
1506.3800   118.2018
1508.4200   107.8928
1510.4600   78.4126
1512.5000   43.8850
1514.5400   22.8105
1516.5900   53.2322
1518.6300   100.9764
1520.6700   127.4633
1522.7100   147.0437
1524.7500   182.2019
1526.7900   205.1139
1528.8400   206.7792
1530.8800   198.8956
1532.9200   140.0143
1534.9600   48.2313
1537.0000   -11.1262
1539.0500   -15.2114
1541.0900   -17.4662
1543.1300   -21.3425
1545.1700   -15.9374
1547.2100   -10.6250
1549.2600   -12.6220
1551.3000   -19.9235
1553.3400   2.2186
1555.3800   26.6082
1557.4200   -0.6144
1559.4700   -35.6955
1561.5100   -82.6766
1563.5500   -185.0023
1565.5900   -247.3600
1567.6300   -252.5764
1569.6700   -260.8932
1571.7200   -278.9482
1573.7600   -300.9539
1575.8000   -315.7693
1577.8400   -307.6713
1579.8800   -284.4822
1581.9300   -259.2245
1583.9700   -240.3231
1586.0100   -234.5434
1588.0500   -285.9309
1590.0900   -314.3235
1592.1400   -234.5250
1594.1800   -171.1622
1596.2200   -198.4973
1598.2600   -223.2011
1600.3000   -228.0333
1602.3500   -238.3192
1604.3900   -268.8487
1606.4300   -342.2339
1608.4700   -375.0596
1610.5100   -379.1674
1612.5500   -405.2834
1614.6000   -399.0297
1616.6400   -361.7109
1618.6800   -310.2764
1620.7200   -257.9275
1622.7600   -247.1195
1624.8100   -175.2612
1626.8500   -113.8385
1628.8900   -134.2480
1630.9300   -163.9379
1632.9700   -172.8877
1635.0200   -171.5807
1637.0600   -167.6742
1639.1000   -169.9685
1641.1400   -171.3523
1643.1800   -188.3046
1645.2300   -226.3568
1647.2700   -259.5802
1649.3100   -273.3704
1651.3500   -273.9500
1653.3900   -263.2110
1655.4300   -224.7893
1657.4800   -178.5839
1659.5200   -190.6417
1661.5600   -201.1050
1663.6000   -157.1564
1665.6400   -114.5815
1667.6900   -138.7262
1669.7300   -138.7537
1671.7700   -74.2442
1673.8100   -51.3427
1675.8500   -182.2261
1677.9000   -230.8658
1679.9400   -107.8564
1681.9800   -27.3499
1684.0200   -44.5084
1686.0600   -60.9211
1688.1100   -46.2548
1690.1500   24.5690
1692.1900   91.6197
1694.2300   114.9531
1696.2700   132.0483
1698.3100   139.6536
