#----------------------------------
# BOTDR
# DSTS: v.07.1
# Fri Oct 22 14:17:40 2021
#
# Channel No  = 0
# Partial   = 0
# Partial Start  = 0.00
# Partial End  = 3112.57
# Fibre Length    [m]   = 3112.57  0.00
# Fiber Delay    [m]   = 112.57
# Connection Point    [m]   = 192.66
# Rpt.period      [us]  = 65
# Pulse width     [ns]  = 30
# Frequency Start [MHz] = 10690.00
# Frequency End:  [MHz] = 10990.00
# Frequency Step: [MHz] = 5.00
# No.Averages:    [-]   = 12000
# Sampling Rate   [-]   = 0 (200.00MSs, spatial step = 0.50m)
# Input Range     [-]   = 2 (1V)
# Pulse Delay     [m]   = 100
# Post Pulse Data [m]   = 0
# Fiber Type      [-]   = CH4 Land
# Fiber  temperature [C] = 27.00
# Fiber  Bril Frequency  [MHz] = 10840.00
# Fiber  Strain Coefficient  [ue/MHz] = 18.9150
# Fiber Temperature Coefficient [C/MHz] = 0.9765
# Fiber Refractive Index = 1.4682
# Fiber Sigma = 0.2000
#
#----------------------------------
6104

-112.5700   10840.0000
-112.0700   10840.0000
-111.5700   10840.0000
-111.0700   10840.0000
-110.5700   10840.0000
-110.0700   10840.0000
-109.5700   10840.0000
-109.0700   10840.0000
-108.5700   10840.0000
-108.0700   10840.0000
-107.5700   10840.0000
-107.0700   10840.0000
-106.5700   10840.0000
-106.0700   10840.0000
-105.5700   10840.0000
-105.0700   10840.0000
-104.5700   10840.0000
-104.0700   10840.0000
-103.5700   10840.0000
-103.0700   10840.0000
-102.5700   10840.0000
-102.0700   10840.0000
-101.5700   10840.0000
-101.0700   10840.0000
-100.5700   10840.0000
-100.0700   10840.0000
-99.5700   10840.0000
-99.0700   10840.0000
-98.5700   10840.0000
-98.0700   10840.0000
-97.5700   10840.0000
-97.0700   10840.0000
-96.5700   10840.0000
-96.0700   10840.0000
-95.5700   10840.0000
-95.0700   10840.0000
-94.5700   10840.0000
-94.0700   10840.0000
-93.5700   10840.0000
-93.0700   10840.0000
-92.5700   10840.0000
-92.0700   10840.0000
-91.5700   10840.0000
-91.0700   10840.0000
-90.5700   10840.0000
-90.0700   10840.0000
-89.5700   10840.0000
-89.0700   10840.0000
-88.5700   10840.0000
-88.0700   10840.0000
-87.5700   10840.0000
-87.0700   10840.0000
-86.5700   10840.0000
-86.0700   10840.0000
-85.5700   10840.0000
-85.0700   10840.0000
-84.5700   10840.0000
-84.0700   10840.0000
-83.5700   10840.0000
-83.0700   10840.0000
-82.5700   10840.0000
-82.0700   10840.0000
-81.5700   10840.0000
-81.0700   10840.0000
-80.5700   10840.0000
-80.0700   10840.0000
-79.5700   10840.0000
-79.0700   10840.0000
-78.5700   10840.0000
-78.0700   10840.0000
-77.5700   10840.0000
-77.0700   10840.0000
-76.5700   10840.0000
-76.0700   10840.0000
-75.5700   10840.0000
-75.0700   10840.0000
-74.5700   10840.0000
-74.0700   10840.0000
-73.5700   10840.0000
-73.0700   10840.0000
-72.5700   10840.0000
-72.0700   10840.0000
-71.5700   10840.0000
-71.0700   10840.0000
-70.5700   10840.0000
-70.0700   10840.0000
-69.5700   10840.0000
-69.0700   10840.0000
-68.5700   10840.0000
-68.0700   10840.0000
-67.5700   10840.0000
-67.0700   10840.0000
-66.5700   10840.0000
-66.0700   10840.0000
-65.5700   10840.0000
-65.0700   10840.0000
-64.5700   10840.0000
-64.0700   10840.0000
-63.5700   10840.0000
-63.0700   10840.0000
-62.5700   10840.0000
-62.0700   10840.0000
-61.5700   10840.0000
-61.0700   10840.0000
-60.5700   10840.0000
-60.0700   10840.0000
-59.5700   10840.0000
-59.0700   10840.0000
-58.5700   10840.0000
-58.0700   10840.0000
-57.5700   10840.0000
-57.0700   10840.0000
-56.5700   10840.0000
-56.0700   10840.0000
-55.5700   10840.0000
-55.0700   10840.0000
-54.5700   10840.0000
-54.0700   10840.0000
-53.5700   10840.0000
-53.0700   10840.0000
-52.5700   10840.0000
-52.0700   10840.0000
-51.5700   10840.0000
-51.0700   10840.0000
-50.5700   10840.0000
-50.0700   10840.0000
-49.5700   10840.0000
-49.0700   10840.0000
-48.5700   10840.0000
-48.0700   10840.0000
-47.5700   10840.0000
-47.0700   10840.0000
-46.5700   10840.0000
-46.0700   10840.0000
-45.5700   10840.0000
-45.0700   10840.0000
-44.5700   10840.0000
-44.0700   10840.0000
-43.5700   10840.0000
-43.0700   10840.0000
-42.5700   10840.0000
-42.0700   10840.0000
-41.5700   10840.0000
-41.0700   10840.0000
-40.5700   10840.0000
-40.0700   10840.0000
-39.5700   10840.0000
-39.0700   10840.0000
-38.5700   10840.0000
-38.0700   10840.0000
-37.5700   10840.0000
-37.0700   10840.0000
-36.5700   10840.0000
-36.0700   10840.0000
-35.5700   10840.0000
-35.0700   10840.0000
-34.5700   10840.0000
-34.0700   10840.0000
-33.5700   10840.0000
-33.0700   10840.0000
-32.5700   10840.0000
-32.0700   10840.0000
-31.5700   10840.0000
-31.0700   10840.0000
-30.5700   10840.0000
-30.0700   10840.0000
-29.5700   10840.0000
-29.0700   10840.0000
-28.5700   10840.0000
-28.0700   10840.0000
-27.5700   10840.0000
-27.0700   10840.0000
-26.5700   10840.0000
-26.0700   10840.0000
-25.5700   10840.0000
-25.0700   10840.0000
-24.5700   10840.0000
-24.0700   10840.0000
-23.5700   10840.0000
-23.0700   10840.0000
-22.5700   10840.0000
-22.0700   10840.0000
-21.5700   10840.0000
-21.0700   10840.0000
-20.5700   10840.0000
-20.0700   10840.0000
-19.5700   10840.0000
-19.0700   10840.0000
-18.5700   10840.0000
-18.0700   10840.0000
-17.5700   10840.0000
-17.0700   10840.0000
-16.5700   10840.0000
-16.0700   10840.0000
-15.5700   10840.0000
-15.0700   10840.0000
-14.5700   10840.0000
-14.0700   10840.0000
-13.5700   10840.0000
-13.0700   10840.0000
-12.5700   10840.0000
-12.0700   10840.0000
-11.5700   10840.0000
-11.0700   10840.0000
-10.5700   10840.0000
-10.0700   10840.0000
-9.5700   10840.0000
-9.0700   10840.0000
-8.5700   10840.0000
-8.0700   10840.0000
-7.5700   10840.0000
-7.0700   10840.0000
-6.5700   10840.0000
-6.0700   10840.0000
-5.5700   10840.0000
-5.0700   10840.0000
-4.5700   10840.0000
-4.0700   10840.0000
-3.5700   10840.0000
-3.0700   10840.0000
-2.5700   10840.0000
-2.0700   10840.0000
-1.5700   10840.0000
-1.0700   10818.1605
-0.5700   10817.7720
-0.0700   10817.0454
0.4400   10816.3418
0.9500   10815.0466
1.4600   10811.7240
1.9700   10809.2823
2.4800   10806.2057
2.9900   10800.9542
3.5000   10794.4230
4.0100   10796.6350
4.5200   10800.0505
5.0300   10808.6751
5.5500   10820.7726
6.0600   10827.9269
6.5700   10831.0468
7.0800   10831.7519
7.5900   10831.2366
8.1000   10831.9281
8.6100   10832.1253
9.1200   10831.7966
9.6300   10831.7905
10.1400   10832.0000
10.6500   10832.8312
11.1600   10833.7652
11.6700   10834.2138
12.1800   10834.0275
12.6900   10835.1554
13.2000   10836.0981
13.7100   10836.5098
14.2200   10837.8240
14.7300   10838.8449
15.2400   10837.0375
15.7500   10837.2996
16.2700   10837.9588
16.7800   10838.5075
17.2900   10837.4333
17.8000   10838.5987
18.3100   10839.0106
18.8200   10839.3809
19.3300   10839.1223
19.8400   10838.9465
20.3500   10839.4623
20.8600   10838.5852
21.3700   10837.7213
21.8800   10838.4878
22.3900   10838.8024
22.9000   10839.1220
23.4100   10838.3911
23.9200   10838.4615
24.4300   10838.9867
24.9400   10837.7377
25.4500   10837.7189
25.9600   10837.8400
26.4700   10837.3974
26.9900   10836.7770
27.5000   10837.6885
28.0100   10837.6256
28.5200   10836.6164
29.0300   10835.8237
29.5400   10837.2690
30.0500   10838.0982
30.5600   10837.9043
31.0700   10837.1104
31.5800   10837.1807
32.0900   10837.4497
32.6000   10837.2835
33.1100   10838.5284
33.6200   10838.8987
34.1300   10839.1661
34.6400   10837.7516
35.1500   10838.9490
35.6600   10839.3236
36.1700   10838.2572
36.6800   10839.0217
37.1900   10839.6386
37.7100   10839.4285
38.2200   10840.5267
38.7300   10841.7599
39.2400   10842.0288
39.7500   10841.7231
40.2600   10841.4856
40.7700   10840.5624
41.2800   10841.1462
41.7900   10841.0032
42.3000   10840.8480
42.8100   10840.6303
43.3200   10840.4826
43.8300   10839.8158
44.3400   10840.2734
44.8500   10839.4907
45.3600   10839.4437
45.8700   10839.3703
46.3800   10839.5464
46.8900   10838.6162
47.4000   10839.5567
47.9100   10840.0094
48.4300   10839.0490
48.9400   10839.5944
49.4500   10839.6911
49.9600   10839.9434
50.4700   10839.5489
50.9800   10839.3274
51.4900   10840.5397
52.0000   10840.6568
52.5100   10839.5779
53.0200   10839.3107
53.5300   10840.0573
54.0400   10839.9711
54.5500   10840.0253
55.0600   10839.8089
55.5700   10840.7401
56.0800   10840.6466
56.5900   10840.2555
57.1000   10840.4403
57.6100   10840.3243
58.1200   10839.6919
58.6300   10840.2139
59.1500   10840.3839
59.6600   10840.2037
60.1700   10839.5480
60.6800   10838.2908
61.1900   10838.7559
61.7000   10839.4066
62.2100   10838.9550
62.7200   10838.8144
63.2300   10838.2618
63.7400   10838.9346
64.2500   10839.6456
64.7600   10839.1639
65.2700   10839.9248
65.7800   10841.0323
66.2900   10840.4948
66.8000   10839.7598
67.3100   10840.9014
67.8200   10841.6595
68.3300   10840.2223
68.8400   10839.7463
69.3500   10839.8598
69.8700   10840.4686
70.3800   10839.7214
70.8900   10840.1981
71.4000   10839.4130
71.9100   10839.4198
72.4200   10839.6894
72.9300   10839.4202
73.4400   10838.8713
73.9500   10839.6536
74.4600   10838.9600
74.9700   10839.3325
75.4800   10839.8412
75.9900   10838.8052
76.5000   10838.9084
77.0100   10839.7892
77.5200   10839.3469
78.0300   10839.4884
78.5400   10838.7416
79.0500   10838.0292
79.5600   10838.9906
80.0700   10840.0241
80.5900   10838.3785
81.1000   10837.9333
81.6100   10837.3589
82.1200   10837.5106
82.6300   10837.1843
83.1400   10838.5060
83.6500   10838.4864
84.1600   10837.8933
84.6700   10837.1625
85.1800   10836.3340
85.6900   10830.8914
86.2000   10817.4134
86.7100   10800.4183
87.2200   10775.8367
87.7300   10765.6255
88.2400   10757.8002
88.7500   10757.0250
89.2600   10751.9817
89.7700   10747.4808
90.2800   10760.0000
90.7900   10760.0000
91.3100   10775.0000
91.8200   10780.0000
92.3300   10779.2328
92.8400   10802.0796
93.3500   10811.7169
93.8600   10815.1331
94.3700   10817.1165
94.8800   10818.4173
95.3900   10820.1001
95.9000   10818.6469
96.4100   10818.5477
96.9200   10818.9388
97.4300   10819.7595
97.9400   10820.4403
98.4500   10818.5797
98.9600   10818.6914
99.4700   10819.1377
99.9800   10821.3166
100.4900   10821.4290
101.0000   10821.2632
101.5100   10821.6648
102.0300   10822.1996
102.5400   10821.3994
103.0500   10821.6929
103.5600   10822.3078
104.0700   10822.3964
104.5800   10821.8937
105.0900   10822.2116
105.6000   10820.3660
106.1100   10820.2154
106.6200   10821.3948
107.1300   10822.1154
107.6400   10820.6274
108.1500   10821.1434
108.6600   10820.7729
109.1700   10820.7583
109.6800   10821.8552
110.1900   10821.7180
110.7000   10820.2231
111.2100   10819.7139
111.7200   10820.4049
112.2300   10822.2004
112.7500   10819.6933
113.2600   10820.4199
113.7700   10820.0265
114.2800   10820.7144
114.7900   10821.0554
115.3000   10821.6783
115.8100   10820.6158
116.3200   10820.6219
116.8300   10820.1748
117.3400   10821.5521
117.8500   10821.9321
118.3600   10821.5590
118.8700   10820.2350
119.3800   10821.0731
119.8900   10820.5341
120.4000   10822.3419
120.9100   10822.9362
121.4200   10823.1772
121.9300   10822.7550
122.4400   10823.3825
122.9500   10822.6424
123.4700   10821.0940
123.9800   10821.0886
124.4900   10822.6342
125.0000   10823.0547
125.5100   10823.0244
126.0200   10821.8761
126.5300   10822.6378
127.0400   10822.2501
127.5500   10823.1677
128.0600   10821.0850
128.5700   10822.2786
129.0800   10822.6445
129.5900   10821.5156
130.1000   10821.7243
130.6100   10821.9896
131.1200   10822.8450
131.6300   10823.8977
132.1400   10823.5411
132.6500   10824.5971
133.1600   10825.4767
133.6700   10825.3862
134.1900   10824.5292
134.7000   10824.0196
135.2100   10824.5726
135.7200   10824.8179
136.2300   10824.9344
136.7400   10825.1443
137.2500   10823.5145
137.7600   10823.2237
138.2700   10823.8604
138.7800   10824.5133
139.2900   10823.7803
139.8000   10824.2597
140.3100   10823.3554
140.8200   10824.9331
141.3300   10824.5744
141.8400   10824.7699
142.3500   10825.1620
142.8600   10824.1522
143.3700   10824.4016
143.8800   10825.1701
144.3900   10825.0970
144.9100   10826.1137
145.4200   10827.6069
145.9300   10828.9639
146.4400   10828.0328
146.9500   10828.0433
147.4600   10827.7528
147.9700   10827.0457
148.4800   10826.1713
148.9900   10827.4938
149.5000   10826.6448
150.0100   10826.9325
150.5200   10826.7927
151.0300   10825.9242
151.5400   10825.8749
152.0500   10824.4195
152.5600   10824.3712
153.0700   10824.2538
153.5800   10824.9987
154.0900   10826.1882
154.6000   10825.3578
155.1100   10823.7578
155.6300   10823.6968
156.1400   10823.5398
156.6500   10823.6906
157.1600   10823.2647
157.6700   10822.3469
158.1800   10822.8446
158.6900   10822.6327
159.2000   10822.8992
159.7100   10823.3557
160.2200   10823.8741
160.7300   10821.9754
161.2400   10823.0234
161.7500   10821.6705
162.2600   10821.3200
162.7700   10823.0380
163.2800   10825.0315
163.7900   10823.7750
164.3000   10823.2216
164.8100   10823.4640
165.3200   10823.9351
165.8300   10824.0414
166.3500   10823.7121
166.8600   10824.0655
167.3700   10824.1973
167.8800   10823.9153
168.3900   10822.9034
168.9000   10821.3698
169.4100   10822.7786
169.9200   10824.2876
170.4300   10824.1560
170.9400   10824.1850
171.4500   10824.9512
171.9600   10822.2353
172.4700   10825.1988
172.9800   10826.6712
173.4900   10824.1163
174.0000   10824.0910
174.5100   10825.3374
175.0200   10825.7499
175.5300   10824.5929
176.0400   10823.4402
176.5500   10823.9197
177.0700   10824.1383
177.5800   10823.4197
178.0900   10822.9619
178.6000   10823.9006
179.1100   10824.5187
179.6200   10824.3780
180.1300   10825.0071
180.6400   10825.4436
181.1500   10824.0815
181.6600   10825.1058
182.1700   10824.3560
182.6800   10823.9378
183.1900   10823.0599
183.7000   10822.5615
184.2100   10822.7084
184.7200   10823.0212
185.2300   10822.1881
185.7400   10822.9217
186.2500   10823.0042
186.7600   10823.5166
187.2700   10823.8473
187.7900   10824.9436
188.3000   10825.1320
188.8100   10824.5652
189.3200   10823.9563
189.8300   10824.1913
190.3400   10824.3623
190.8500   10824.4343
191.3600   10825.3267
191.8700   10824.5121
192.3800   10824.2371
192.8900   10824.3877
193.4000   10823.6054
193.9100   10824.3080
194.4200   10825.4246
194.9300   10826.3316
195.4400   10824.8672
195.9500   10823.8313
196.4600   10824.1188
196.9700   10823.3374
197.4800   10824.1436
197.9900   10824.2310
198.5100   10823.0207
199.0200   10825.0462
199.5300   10825.0705
200.0400   10823.4834
200.5500   10823.5355
201.0600   10824.0417
201.5700   10825.4936
202.0800   10825.5976
202.5900   10825.7460
203.1000   10824.6986
203.6100   10823.1404
204.1200   10823.5504
204.6300   10824.5548
205.1400   10824.1958
205.6500   10825.4085
206.1600   10824.5688
206.6700   10824.0042
207.1800   10822.3184
207.6900   10823.7279
208.2000   10823.8136
208.7100   10822.4852
209.2300   10824.1809
209.7400   10823.2302
210.2500   10824.2275
210.7600   10823.1055
211.2700   10822.6971
211.7800   10822.7307
212.2900   10822.6140
212.8000   10821.4615
213.3100   10822.7070
213.8200   10822.7372
214.3300   10823.2178
214.8400   10822.5905
215.3500   10823.4027
215.8600   10823.0608
216.3700   10823.1886
216.8800   10824.2239
217.3900   10824.9085
217.9000   10824.0141
218.4100   10823.2990
218.9200   10824.0317
219.4300   10825.0852
219.9500   10824.6878
220.4600   10824.0657
220.9700   10824.7354
221.4800   10824.1939
221.9900   10822.5737
222.5000   10823.0867
223.0100   10822.5657
223.5200   10822.7120
224.0300   10821.0946
224.5400   10821.9526
225.0500   10822.2868
225.5600   10822.8659
226.0700   10822.5069
226.5800   10822.2768
227.0900   10821.1398
227.6000   10822.4954
228.1100   10823.0318
228.6200   10822.4529
229.1300   10821.6785
229.6400   10823.8595
230.1500   10822.7966
230.6700   10823.4844
231.1800   10822.1834
231.6900   10822.7178
232.2000   10822.6632
232.7100   10822.4494
233.2200   10821.0788
233.7300   10822.4107
234.2400   10822.2734
234.7500   10823.2834
235.2600   10823.7866
235.7700   10823.1299
236.2800   10823.0510
236.7900   10824.0725
237.3000   10823.9284
237.8100   10823.8821
238.3200   10823.4577
238.8300   10823.1185
239.3400   10822.7666
239.8500   10823.7789
240.3600   10823.6742
240.8700   10823.2460
241.3900   10823.4330
241.9000   10824.3528
242.4100   10823.0909
242.9200   10823.8010
243.4300   10823.4927
243.9400   10823.0212
244.4500   10823.6948
244.9600   10824.8112
245.4700   10823.6765
245.9800   10824.2374
246.4900   10824.3346
247.0000   10825.2709
247.5100   10823.8210
248.0200   10823.7715
248.5300   10824.0415
249.0400   10824.7882
249.5500   10825.3785
250.0600   10825.1781
250.5700   10823.2366
251.0800   10822.5655
251.5900   10824.6100
252.1100   10825.8047
252.6200   10825.6336
253.1300   10823.7291
253.6400   10823.7252
254.1500   10826.1150
254.6600   10825.4379
255.1700   10824.5806
255.6800   10824.5753
256.1900   10823.7809
256.7000   10823.0494
257.2100   10823.4739
257.7200   10823.1901
258.2300   10823.7162
258.7400   10824.9594
259.2500   10826.2023
259.7600   10824.1969
260.2700   10823.5762
260.7800   10823.3281
261.2900   10823.7896
261.8000   10824.0805
262.3100   10824.7543
262.8300   10823.5845
263.3400   10823.9397
263.8500   10823.7585
264.3600   10824.8138
264.8700   10823.5604
265.3800   10822.8281
265.8900   10823.2439
266.4000   10823.0365
266.9100   10824.4526
267.4200   10824.7610
267.9300   10824.7451
268.4400   10825.3535
268.9500   10825.3102
269.4600   10825.3118
269.9700   10824.1490
270.4800   10824.3895
270.9900   10823.6698
271.5000   10823.4017
272.0100   10823.8844
272.5200   10823.2888
273.0300   10822.7516
273.5500   10822.7090
274.0600   10823.0283
274.5700   10824.7466
275.0800   10823.9322
275.5900   10824.0110
276.1000   10824.4314
276.6100   10824.4041
277.1200   10823.3957
277.6300   10823.0039
278.1400   10823.5834
278.6500   10823.8906
279.1600   10824.1579
279.6700   10824.0546
280.1800   10822.3063
280.6900   10822.6431
281.2000   10823.6536
281.7100   10823.8231
282.2200   10824.6784
282.7300   10824.5754
283.2400   10825.3532
283.7500   10825.4596
284.2700   10825.4628
284.7800   10825.3475
285.2900   10825.3793
285.8000   10824.5251
286.3100   10822.3242
286.8200   10823.7311
287.3300   10823.8615
287.8400   10825.2853
288.3500   10824.6403
288.8600   10823.6534
289.3700   10822.7354
289.8800   10823.1329
290.3900   10823.3920
290.9000   10824.0714
291.4100   10825.1413
291.9200   10825.4114
292.4300   10823.0841
292.9400   10823.4580
293.4500   10823.7757
293.9600   10824.8860
294.4700   10824.3902
294.9900   10823.7025
295.5000   10823.3418
296.0100   10823.6188
296.5200   10823.1445
297.0300   10824.8933
297.5400   10826.0450
298.0500   10824.2881
298.5600   10823.9998
299.0700   10824.8547
299.5800   10825.2387
300.0900   10824.9495
300.6000   10822.7432
301.1100   10823.0387
301.6200   10824.0758
302.1300   10823.3647
302.6400   10824.3081
303.1500   10824.9048
303.6600   10825.2087
304.1700   10824.9075
304.6800   10824.3086
305.1900   10824.3226
305.7100   10824.9438
306.2200   10825.0984
306.7300   10824.9287
307.2400   10826.2471
307.7500   10824.9998
308.2600   10823.9995
308.7700   10824.4577
309.2800   10823.6810
309.7900   10824.4093
310.3000   10824.3455
310.8100   10823.8378
311.3200   10823.7377
