#----------------------------------
# BOTDR
# DSTS: v.07.1
# Fri Oct 22 13:50:52 2021
#
# Channel No  = 2
# Partial   = 0
# Partial Start  = 0.00
# Partial End  = 5118.55
# Fibre Length    [m]   = 5118.55  0.00
# Fiber Delay    [m]   = 118.55
# Connection Point    [m]   = 198.64
# Rpt.period      [us]  = 65
# Pulse width     [ns]  = 40
# Frequency Start [MHz] = 10690.00
# Frequency End:  [MHz] = 10990.00
# Frequency Step: [MHz] = 5.00
# No.Averages:    [-]   = 12000
# Sampling Rate   [-]   = 2 (50.00MSs, spatial step = 2.00m)
# Input Range     [-]   = 2 (1V)
# Pulse Delay     [m]   = 100
# Post Pulse Data [m]   = 0
# Fiber Type      [-]   = CH4 Land
# Fiber  temperature [C] = 27.00
# Fiber  Bril Frequency  [MHz] = 10840.00
# Fiber  Strain Coefficient  [ue/MHz] = 18.9150
# Fiber Temperature Coefficient [C/MHz] = 0.9765
# Fiber Refractive Index = 1.4682
# Fiber Sigma = 0.2000
#
#----------------------------------
2509

-118.5500   10840.0000
-116.5500   10840.0000
-114.5500   10840.0000
-112.5500   10840.0000
-110.5500   10840.0000
-108.5500   10840.0000
-106.5500   10840.0000
-104.5500   10840.0000
-102.5500   10840.0000
-100.5500   10840.0000
-98.5500   10840.0000
-96.5500   10840.0000
-94.5500   10840.0000
-92.5500   10840.0000
-90.5500   10840.0000
-88.5500   10840.0000
-86.5500   10840.0000
-84.5500   10840.0000
-82.5500   10840.0000
-80.5500   10840.0000
-78.5500   10840.0000
-76.5500   10840.0000
-74.5500   10840.0000
-72.5500   10840.0000
-70.5500   10840.0000
-68.5500   10840.0000
-66.5500   10840.0000
-64.5500   10840.0000
-62.5500   10840.0000
-60.5500   10840.0000
-58.5500   10840.0000
-56.5500   10840.0000
-54.5500   10840.0000
-52.5500   10840.0000
-50.5500   10840.0000
-48.5500   10840.0000
-46.5500   10840.0000
-44.5500   10840.0000
-42.5500   10840.0000
-40.5500   10840.0000
-38.5500   10840.0000
-36.5500   10840.0000
-34.5500   10840.0000
-32.5500   10840.0000
-30.5500   10840.0000
-28.5500   10840.0000
-26.5500   10840.0000
-24.5500   10840.0000
-22.5500   10840.0000
-20.5500   10840.0000
-18.5500   10840.0000
-16.5500   10840.0000
-14.5500   10840.0000
-12.5500   10840.0000
-10.5500   10840.0000
-8.5500   10840.0000
-6.5500   10840.0000
-4.5500   10840.0000
-2.5500   10816.0663
-0.5500   10813.3984
1.4900   10807.5655
3.5300   10811.7966
5.5800   10839.9965
7.6200   10842.9549
9.6600   10843.4144
11.7000   10844.8090
13.7400   10846.6996
15.7900   10847.8411
17.8300   10848.3988
19.8700   10848.5468
21.9100   10848.3675
23.9500   10847.9693
25.9900   10847.6871
28.0400   10847.7084
30.0800   10847.9762
32.1200   10848.5240
34.1600   10848.7657
36.2000   10849.4383
38.2500   10850.6649
40.2900   10850.8309
42.3300   10850.6224
44.3700   10850.1289
46.4100   10849.9687
48.4600   10849.9320
50.5000   10850.1845
52.5400   10850.0758
54.5800   10849.6285
56.6200   10849.5857
58.6700   10849.3128
60.7100   10849.3545
62.7500   10849.4677
64.7900   10849.6399
66.8300   10849.7014
68.8700   10849.9049
70.9200   10849.5618
72.9600   10849.4791
75.0000   10849.8506
77.0400   10849.6747
79.0800   10849.2086
81.1300   10848.7521
83.1700   10848.1913
85.2100   10846.5074
87.2500   10755.0000
89.2900   10733.6108
91.3400   10770.0000
93.3800   10800.0000
95.4200   10799.3421
97.4600   10800.4636
99.5000   10800.9253
101.5500   10800.9556
103.5900   10800.8685
105.6300   10800.7910
107.6700   10800.8344
109.7100   10801.0644
111.7500   10801.0576
113.8000   10801.3069
115.8400   10801.4936
117.8800   10801.5618
119.9200   10801.8735
121.9600   10802.3470
124.0100   10802.4293
126.0500   10802.5784
128.0900   10802.8310
130.1300   10803.3575
132.1700   10803.6614
134.2200   10803.9897
136.2600   10803.5309
138.3000   10803.3609
140.3400   10803.3175
142.3800   10803.8754
144.4300   10805.6428
146.4700   10806.6778
148.5100   10806.5285
150.5500   10805.8822
152.5900   10804.8871
154.6300   10804.2432
156.6800   10803.8959
158.7200   10803.8550
160.7600   10803.3486
162.8000   10803.4593
164.8400   10803.7291
166.8900   10803.9318
168.9300   10804.5352
170.9700   10805.4298
173.0100   10805.7793
175.0500   10806.2444
177.1000   10806.5749
179.1400   10806.6439
181.1800   10806.8065
183.2200   10806.9035
185.2600   10807.2865
187.3100   10807.3418
189.3500   10807.0972
191.3900   10806.9957
193.4300   10806.8871
195.4700   10807.3069
197.5100   10807.9006
199.5600   10807.5586
201.6000   10807.4192
203.6400   10807.7197
205.6800   10807.5835
207.7200   10807.1696
209.7700   10806.8881
211.8100   10806.8471
213.8500   10807.1026
215.8900   10807.4252
217.9300   10808.0234
219.9800   10807.9900
222.0200   10807.1258
224.0600   10807.4302
226.1000   10808.1049
228.1400   10808.1808
230.1900   10807.3672
232.2300   10807.0879
234.2700   10807.1733
236.3100   10807.2410
238.3500   10807.8655
240.3900   10807.9701
242.4400   10807.6775
244.4800   10807.1487
246.5200   10806.0589
248.5600   10805.4769
250.6000   10805.4578
252.6500   10806.1685
254.6900   10806.1978
256.7300   10805.8272
258.7700   10805.4841
260.8100   10805.2738
262.8600   10805.4414
264.9000   10805.6660
266.9400   10806.1504
268.9800   10806.7417
271.0200   10806.4831
273.0700   10806.3264
275.1100   10805.9664
277.1500   10806.0413
279.1900   10806.0225
281.2300   10806.6096
283.2700   10806.7784
285.3200   10806.7091
287.3600   10806.0350
289.4000   10805.4799
291.4400   10805.0983
293.4800   10805.2111
295.5300   10805.1190
297.5700   10805.6619
299.6100   10806.1449
301.6500   10806.0351
303.6900   10805.6952
305.7400   10805.5155
307.7800   10805.5709
309.8200   10805.4705
311.8600   10804.9810
313.9000   10804.9407
315.9500   10805.2028
317.9900   10805.5188
320.0300   10805.7463
322.0700   10806.2932
324.1100   10806.2304
326.1500   10806.3297
328.2000   10806.8368
330.2400   10807.6353
332.2800   10808.1166
334.3200   10808.5421
336.3600   10808.5720
338.4100   10808.1735
340.4500   10808.0384
342.4900   10808.2204
344.5300   10809.0290
346.5700   10809.2548
348.6200   10808.5176
350.6600   10808.1934
352.7000   10808.1635
354.7400   10808.3338
356.7800   10808.7995
358.8300   10809.0285
360.8700   10809.0851
362.9100   10808.5195
364.9500   10808.2974
366.9900   10808.4467
369.0300   10807.9582
371.0800   10807.8245
373.1200   10807.8347
375.1600   10807.9238
377.2000   10807.8235
379.2400   10808.0954
381.2900   10808.0162
383.3300   10807.9238
385.3700   10807.5758
387.4100   10807.1705
389.4500   10807.0683
391.5000   10806.9975
393.5400   10806.5039
395.5800   10806.4506
397.6200   10806.9452
399.6600   10807.0422
401.7100   10806.5840
403.7500   10806.4492
405.7900   10806.9046
407.8300   10806.9715
409.8700   10806.9827
411.9100   10807.0871
413.9600   10807.2955
416.0000   10807.4824
418.0400   10807.4523
420.0800   10807.8866
422.1200   10808.2921
424.1700   10808.1895
426.2100   10808.3997
428.2500   10808.5322
430.2900   10809.2375
432.3300   10809.4816
434.3800   10809.4739
436.4200   10809.8010
438.4600   10809.6764
440.5000   10809.7325
442.5400   10808.6422
444.5900   10807.5494
446.6300   10807.2403
448.6700   10807.3613
450.7100   10807.8098
452.7500   10807.5380
454.7900   10807.5383
456.8400   10807.8058
458.8800   10807.5900
460.9200   10807.1706
462.9600   10807.1259
465.0000   10807.0188
467.0500   10806.4326
469.0900   10806.4227
471.1300   10807.3617
473.1700   10807.9066
475.2100   10808.1215
477.2600   10808.6513
479.3000   10807.7843
481.3400   10806.4685
483.3800   10806.2108
485.4200   10806.7708
487.4700   10807.3261
489.5100   10807.0299
491.5500   10806.9043
493.5900   10807.2547
495.6300   10807.5477
497.6700   10808.1852
499.7200   10808.1188
501.7600   10807.4762
503.8000   10807.1793
505.8400   10807.5939
507.8800   10807.8719
509.9300   10807.3498
511.9700   10806.8099
514.0100   10806.7525
516.0500   10807.0392
518.0900   10807.2341
520.1400   10807.6221
522.1800   10807.3970
524.2200   10807.3243
526.2600   10807.3692
528.3000   10806.5570
530.3500   10806.4037
532.3900   10806.7659
534.4300   10805.7390
536.4700   10805.5892
538.5100   10805.4968
540.5500   10805.0244
542.6000   10804.3174
544.6400   10804.2380
546.6800   10804.4846
548.7200   10804.3929
550.7600   10804.7735
552.8100   10805.9214
554.8500   10813.5976
556.8900   10825.8906
558.9300   10829.5300
560.9700   10829.5892
563.0200   10829.2298
565.0600   10828.7130
567.1000   10827.8384
569.1400   10828.3442
571.1800   10828.2625
573.2300   10828.0508
575.2700   10828.1791
577.3100   10828.9704
579.3500   10830.0822
581.3900   10830.2768
583.4300   10830.0097
585.4800   10830.4389
587.5200   10831.0796
589.5600   10831.2837
591.6000   10831.3436
593.6400   10830.8914
595.6900   10830.9461
597.7300   10831.3599
599.7700   10830.9073
601.8100   10830.4907
603.8500   10830.6241
605.9000   10831.0704
607.9400   10830.6912
609.9800   10830.4502
612.0200   10829.4875
614.0600   10829.5931
616.1100   10829.8398
618.1500   10829.8769
620.1900   10830.0981
622.2300   10829.9009
624.2700   10830.2021
626.3100   10830.4907
628.3600   10830.8649
630.4000   10831.0251
632.4400   10831.5354
634.4800   10831.5861
636.5200   10831.1023
638.5700   10830.8515
640.6100   10830.8018
642.6500   10830.3681
644.6900   10829.8934
646.7300   10829.5759
648.7800   10829.1368
650.8200   10829.8143
652.8600   10830.4446
654.9000   10830.0416
656.9400   10829.8577
658.9900   10829.3942
661.0300   10829.8787
663.0700   10830.4392
665.1100   10831.0587
667.1500   10831.4871
669.1900   10831.8480
671.2400   10831.9079
673.2800   10832.1790
675.3200   10831.2567
677.3600   10830.1464
679.4000   10830.2412
681.4500   10831.4367
683.4900   10831.9951
685.5300   10832.3094
687.5700   10832.3144
689.6100   10832.3541
691.6600   10833.0602
693.7000   10833.3668
695.7400   10832.8607
697.7800   10831.2987
699.8200   10831.7599
701.8700   10834.8071
703.9100   10837.1025
705.9500   10838.8060
707.9900   10840.1343
710.0300   10841.0649
712.0700   10841.3298
714.1200   10840.9053
716.1600   10840.0200
718.2000   10839.6375
720.2400   10839.1401
722.2800   10839.2780
724.3300   10839.8384
726.3700   10839.8615
728.4100   10838.9542
730.4500   10838.5382
732.4900   10839.4896
734.5400   10839.5724
736.5800   10839.5293
738.6200   10839.9025
740.6600   10840.1149
742.7000   10840.2320
744.7500   10839.8112
746.7900   10839.1595
748.8300   10838.1751
750.8700   10837.6099
752.9100   10837.2895
754.9500   10836.6488
757.0000   10836.4093
759.0400   10835.4016
761.0800   10834.2761
763.1200   10834.8400
765.1600   10835.8883
767.2100   10835.7911
769.2500   10835.5740
771.2900   10835.6662
773.3300   10835.1324
775.3700   10834.4914
777.4200   10834.2187
779.4600   10834.1023
781.5000   10834.1931
783.5400   10834.2377
785.5800   10834.3262
787.6300   10834.1695
789.6700   10834.0537
791.7100   10833.7422
793.7500   10833.5832
795.7900   10833.3473
797.8300   10832.9870
799.8800   10831.7239
801.9200   10832.1402
803.9600   10833.1209
806.0000   10833.5751
808.0400   10833.6380
810.0900   10833.5693
812.1300   10833.9795
814.1700   10834.1287
816.2100   10834.4482
818.2500   10834.9266
820.3000   10835.2345
822.3400   10835.2839
824.3800   10835.7898
826.4200   10836.0198
828.4600   10835.9517
830.5100   10835.8017
832.5500   10835.4946
834.5900   10835.0924
836.6300   10834.8950
838.6700   10834.9873
840.7100   10833.7694
842.7600   10833.0606
844.8000   10833.2587
846.8400   10833.1391
848.8800   10833.0115
850.9200   10833.3011
852.9700   10832.7719
855.0100   10832.3256
857.0500   10832.3569
859.0900   10832.2769
861.1300   10832.9982
863.1800   10832.6819
865.2200   10831.5126
867.2600   10831.0690
869.3000   10831.5314
871.3400   10832.3841
873.3900   10832.3525
875.4300   10831.8645
877.4700   10831.6417
879.5100   10832.0788
881.5500   10832.5864
883.5900   10832.6008
885.6400   10833.0348
887.6800   10833.3945
889.7200   10833.1400
891.7600   10832.9037
893.8000   10832.8780
895.8500   10833.0043
897.8900   10833.3088
899.9300   10833.1954
901.9700   10832.4987
904.0100   10832.5493
906.0600   10833.2579
908.1000   10833.6963
910.1400   10833.5323
912.1800   10832.7522
914.2200   10831.7526
916.2700   10831.3586
918.3100   10831.4070
920.3500   10831.8910
922.3900   10832.4316
924.4300   10832.0940
926.4700   10831.8887
928.5200   10831.8626
930.5600   10831.4925
932.6000   10831.8103
934.6400   10831.6344
936.6800   10831.4118
938.7300   10831.4381
940.7700   10830.6392
942.8100   10830.6538
944.8500   10831.2251
946.8900   10831.8472
948.9400   10832.6046
950.9800   10832.5084
953.0200   10831.6896
955.0600   10831.3305
957.1000   10830.9824
959.1500   10830.8894
961.1900   10831.5109
963.2300   10830.6503
965.2700   10829.5115
967.3100   10830.6814
969.3500   10833.2944
971.4000   10835.3748
973.4400   10836.2006
975.4800   10835.5142
977.5200   10835.7840
979.5600   10836.0963
981.6100   10835.3655
983.6500   10834.9908
985.6900   10834.5440
987.7300   10832.5096
989.7700   10832.1816
991.8200   10834.1621
993.8600   10834.7630
995.9000   10833.6607
997.9400   10832.1092
999.9800   10831.3670
1002.0300   10830.4342
1004.0700   10829.5298
1006.1100   10828.7095
1008.1500   10827.7241
1010.1900   10827.5157
1012.2300   10827.6221
1014.2800   10829.1595
1016.3200   10831.8193
1018.3600   10833.7985
1020.4000   10835.0241
1022.4400   10834.8131
1024.4900   10834.6921
1026.5300   10834.8013
1028.5700   10835.1921
1030.6100   10836.1620
1032.6500   10836.1027
1034.7000   10834.6125
1036.7400   10832.5512
1038.7800   10833.2460
1040.8200   10834.8326
1042.8600   10835.1416
1044.9100   10835.0741
1046.9500   10834.9291
1048.9900   10835.0498
1051.0300   10834.3504
1053.0700   10833.6936
1055.1100   10833.2545
1057.1600   10830.5839
1059.2000   10827.7626
1061.2400   10826.6188
1063.2800   10826.5304
1065.3200   10826.6575
1067.3700   10827.2804
1069.4100   10828.7524
1071.4500   10830.0076
1073.4900   10831.4805
1075.5300   10832.3555
1077.5800   10832.6595
1079.6200   10833.5057
1081.6600   10833.7589
1083.7000   10832.2219
1085.7400   10831.0321
1087.7900   10832.5087
1089.8300   10833.9817
1091.8700   10833.9890
1093.9100   10833.3667
1095.9500   10833.9092
1097.9900   10835.2510
1100.0400   10835.9442
1102.0800   10836.0961
1104.1200   10835.7109
1106.1600   10835.1875
1108.2000   10833.4353
1110.2500   10832.6166
1112.2900   10834.3361
1114.3300   10836.5791
1116.3700   10837.2485
1118.4100   10836.8640
1120.4600   10835.9894
1122.5000   10835.3475
1124.5400   10834.8159
1126.5800   10833.6950
1128.6200   10831.1433
1130.6700   10828.6745
1132.7100   10827.4678
1134.7500   10828.8939
1136.7900   10832.6622
1138.8300   10834.5319
1140.8700   10834.9167
1142.9200   10834.6110
1144.9600   10834.5858
1147.0000   10835.1916
1149.0400   10834.7365
1151.0800   10834.3081
1153.1300   10833.9897
1155.1700   10833.6286
1157.2100   10832.8845
1159.2500   10832.7484
1161.2900   10835.0044
1163.3400   10835.1840
1165.3800   10834.4230
1167.4200   10833.7375
1169.4600   10833.7427
1171.5000   10834.0469
1173.5500   10834.5695
1175.5900   10835.2768
1177.6300   10835.3676
1179.6700   10834.9138
1181.7100   10832.9616
1183.7500   10832.1865
1185.8000   10833.7043
1187.8400   10834.8733
1189.8800   10836.2084
1191.9200   10837.2414
1193.9600   10837.0799
1196.0100   10836.7953
1198.0500   10836.8386
1200.0900   10837.1581
1202.1300   10836.6405
1204.1700   10835.5769
1206.2200   10833.1365
1208.2600   10832.7377
1210.3000   10833.7131
1212.3400   10834.6594
1214.3800   10835.2207
1216.4300   10835.5928
1218.4700   10835.9635
1220.5100   10835.9332
1222.5500   10836.1506
1224.5900   10835.7383
1226.6300   10833.9052
1228.6800   10831.7653
1230.7200   10830.8549
1232.7600   10832.7869
1234.8000   10834.4605
1236.8400   10834.4625
1238.8900   10834.0102
1240.9300   10834.0122
1242.9700   10834.6667
1245.0100   10835.5836
1247.0500   10836.1714
1249.1000   10836.0711
1251.1400   10834.8277
1253.1800   10833.1882
1255.2200   10832.3789
1257.2600   10833.7454
1259.3100   10835.9637
1261.3500   10836.0901
1263.3900   10835.8718
1265.4300   10835.3432
1267.4700   10834.5959
1269.5100   10834.9094
1271.5600   10834.5025
1273.6000   10833.7938
1275.6400   10833.3169
1277.6800   10831.8990
1279.7200   10831.2716
1281.7700   10832.6532
1283.8100   10834.6491
1285.8500   10834.7483
1287.8900   10834.6826
1289.9300   10835.1977
1291.9800   10835.0592
1294.0200   10834.6747
1296.0600   10834.3832
1298.1000   10833.6580
1300.1400   10832.5476
1302.1900   10831.4246
1304.2300   10831.0154
1306.2700   10832.9057
1308.3100   10835.0938
1310.3500   10835.9175
1312.3900   10835.5143
1314.4400   10835.1501
1316.4800   10835.5688
1318.5200   10836.2102
1320.5600   10836.3392
1322.6000   10835.9102
1324.6500   10835.0412
1326.6900   10833.1621
1328.7300   10832.0651
1330.7700   10833.1697
1332.8100   10834.2418
1334.8600   10835.6770
1336.9000   10837.0669
1338.9400   10837.2631
1340.9800   10837.1296
1343.0200   10837.0179
1345.0700   10836.6129
1347.1100   10836.1977
1349.1500   10835.2284
1351.1900   10832.6321
1353.2300   10832.0892
1355.2700   10835.0093
1357.3200   10836.5461
1359.3600   10835.7341
1361.4000   10834.7247
1363.4400   10835.0390
1365.4800   10835.8436
1367.5300   10836.5431
1369.5700   10836.7028
1371.6100   10836.5073
1373.6500   10834.6821
1375.6900   10831.5462
1377.7400   10829.8493
1379.7800   10830.3065
1381.8200   10832.8307
1383.8600   10834.8447
1385.9000   10835.5973
1387.9500   10835.8186
1389.9900   10835.7596
1392.0300   10835.7279
1394.0700   10835.2162
1396.1100   10833.9801
1398.1500   10832.2553
1400.2000   10830.9183
1402.2400   10831.9246
1404.2800   10834.8786
1406.3200   10836.0053
1408.3600   10836.2459
1410.4100   10836.6552
1412.4500   10837.0796
1414.4900   10837.0031
1416.5300   10835.9081
1418.5700   10835.6850
1420.6200   10836.3982
1422.6600   10836.4481
1424.7000   10833.3319
1426.7400   10829.5685
1428.7800   10830.5892
1430.8300   10832.1788
1432.8700   10832.6692
1434.9100   10832.5653
1436.9500   10832.1154
1438.9900   10832.1245
1441.0300   10831.5751
1443.0800   10829.9145
1445.1200   10828.2693
1447.1600   10827.4432
1449.2000   10827.4346
1451.2400   10827.2215
1453.2900   10827.0359
1455.3300   10826.9626
1457.3700   10827.5837
1459.4100   10829.4435
1461.4500   10830.1043
1463.5000   10829.3477
1465.5400   10828.9394
1467.5800   10829.1078
1469.6200   10829.8852
1471.6600   10831.5677
1473.7100   10832.2397
1475.7500   10832.1656
1477.7900   10831.8072
1479.8300   10831.2311
1481.8700   10830.7347
1483.9100   10830.9658
1485.9600   10830.5609
1488.0000   10829.4153
1490.0400   10829.6306
1492.0800   10830.7693
1494.1200   10831.7293
1496.1700   10832.9014
1498.2100   10834.5340
1500.2500   10835.5079
1502.2900   10835.6108
1504.3300   10835.2946
1506.3800   10834.9555
1508.4200   10835.4206
1510.4600   10835.9740
1512.5000   10836.2334
1514.5400   10836.3529
1516.5900   10835.7937
1518.6300   10835.0875
1520.6700   10832.9452
1522.7100   10832.5250
1524.7500   10834.0984
1526.7900   10835.3370
1528.8400   10835.1846
1530.8800   10835.5792
1532.9200   10835.4446
1534.9600   10835.0636
1537.0000   10835.4591
1539.0500   10835.7090
1541.0900   10836.7690
1543.1300   10837.3087
1545.1700   10836.8844
1547.2100   10836.6267
