#----------------------------------
# BOTDR
# DSTS: v.07.1
# Fri Oct 22 14:42:29 2021
#
# Channel No  = 0
# Partial   = 0
# Partial Start  = 0.00
# Partial End  = 4118.55
# Fibre Length    [m]   = 4118.55  0.00
# Fiber Delay    [m]   = 118.55
# Connection Point    [m]   = 198.64
# Rpt.period      [us]  = 65
# Pulse width     [ns]  = 40
# Frequency Start [MHz] = 10690.00
# Frequency End:  [MHz] = 10990.00
# Frequency Step: [MHz] = 5.00
# No.Averages:    [-]   = 12000
# Sampling Rate   [-]   = 0 (200.00MSs, spatial step = 0.50m)
# Input Range     [-]   = 2 (1V)
# Pulse Delay     [m]   = 100
# Post Pulse Data [m]   = 0
# Fiber Type      [-]   = CH4 Land
# Fiber  temperature [C] = 27.00
# Fiber  Bril Frequency  [MHz] = 10840.00
# Fiber  Strain Coefficient  [ue/MHz] = 18.9150
# Fiber Temperature Coefficient [C/MHz] = 0.9765
# Fiber Refractive Index = 1.4682
# Fiber Sigma = 0.2000
#
#----------------------------------
8074

-118.5500   10840.0000
-118.0500   10840.0000
-117.5500   10840.0000
-117.0500   10840.0000
-116.5500   10840.0000
-116.0500   10840.0000
-115.5500   10840.0000
-115.0500   10840.0000
-114.5500   10840.0000
-114.0500   10840.0000
-113.5500   10840.0000
-113.0500   10840.0000
-112.5500   10840.0000
-112.0500   10840.0000
-111.5500   10840.0000
-111.0500   10840.0000
-110.5500   10840.0000
-110.0500   10840.0000
-109.5500   10840.0000
-109.0500   10840.0000
-108.5500   10840.0000
-108.0500   10840.0000
-107.5500   10840.0000
-107.0500   10840.0000
-106.5500   10840.0000
-106.0500   10840.0000
-105.5500   10840.0000
-105.0500   10840.0000
-104.5500   10840.0000
-104.0500   10840.0000
-103.5500   10840.0000
-103.0500   10840.0000
-102.5500   10840.0000
-102.0500   10840.0000
-101.5500   10840.0000
-101.0500   10840.0000
-100.5500   10840.0000
-100.0500   10840.0000
-99.5500   10840.0000
-99.0500   10840.0000
-98.5500   10840.0000
-98.0500   10840.0000
-97.5500   10840.0000
-97.0500   10840.0000
-96.5500   10840.0000
-96.0500   10840.0000
-95.5500   10840.0000
-95.0500   10840.0000
-94.5500   10840.0000
-94.0500   10840.0000
-93.5500   10840.0000
-93.0500   10840.0000
-92.5500   10840.0000
-92.0500   10840.0000
-91.5500   10840.0000
-91.0500   10840.0000
-90.5500   10840.0000
-90.0500   10840.0000
-89.5500   10840.0000
-89.0500   10840.0000
-88.5500   10840.0000
-88.0500   10840.0000
-87.5500   10840.0000
-87.0500   10840.0000
-86.5500   10840.0000
-86.0500   10840.0000
-85.5500   10840.0000
-85.0500   10840.0000
-84.5500   10840.0000
-84.0500   10840.0000
-83.5500   10840.0000
-83.0500   10840.0000
-82.5500   10840.0000
-82.0500   10840.0000
-81.5500   10840.0000
-81.0500   10840.0000
-80.5500   10840.0000
-80.0500   10840.0000
-79.5500   10840.0000
-79.0500   10840.0000
-78.5500   10840.0000
-78.0500   10840.0000
-77.5500   10840.0000
-77.0500   10840.0000
-76.5500   10840.0000
-76.0500   10840.0000
-75.5500   10840.0000
-75.0500   10840.0000
-74.5500   10840.0000
-74.0500   10840.0000
-73.5500   10840.0000
-73.0500   10840.0000
-72.5500   10840.0000
-72.0500   10840.0000
-71.5500   10840.0000
-71.0500   10840.0000
-70.5500   10840.0000
-70.0500   10840.0000
-69.5500   10840.0000
-69.0500   10840.0000
-68.5500   10840.0000
-68.0500   10840.0000
-67.5500   10840.0000
-67.0500   10840.0000
-66.5500   10840.0000
-66.0500   10840.0000
-65.5500   10840.0000
-65.0500   10840.0000
-64.5500   10840.0000
-64.0500   10840.0000
-63.5500   10840.0000
-63.0500   10840.0000
-62.5500   10840.0000
-62.0500   10840.0000
-61.5500   10840.0000
-61.0500   10840.0000
-60.5500   10840.0000
-60.0500   10840.0000
-59.5500   10840.0000
-59.0500   10840.0000
-58.5500   10840.0000
-58.0500   10840.0000
-57.5500   10840.0000
-57.0500   10840.0000
-56.5500   10840.0000
-56.0500   10840.0000
-55.5500   10840.0000
-55.0500   10840.0000
-54.5500   10840.0000
-54.0500   10840.0000
-53.5500   10840.0000
-53.0500   10840.0000
-52.5500   10840.0000
-52.0500   10840.0000
-51.5500   10840.0000
-51.0500   10840.0000
-50.5500   10840.0000
-50.0500   10840.0000
-49.5500   10840.0000
-49.0500   10840.0000
-48.5500   10840.0000
-48.0500   10840.0000
-47.5500   10840.0000
-47.0500   10840.0000
-46.5500   10840.0000
-46.0500   10840.0000
-45.5500   10840.0000
-45.0500   10840.0000
-44.5500   10840.0000
-44.0500   10840.0000
-43.5500   10840.0000
-43.0500   10840.0000
-42.5500   10840.0000
-42.0500   10840.0000
-41.5500   10840.0000
-41.0500   10840.0000
-40.5500   10840.0000
-40.0500   10840.0000
-39.5500   10840.0000
-39.0500   10840.0000
-38.5500   10840.0000
-38.0500   10840.0000
-37.5500   10840.0000
-37.0500   10840.0000
-36.5500   10840.0000
-36.0500   10840.0000
-35.5500   10840.0000
-35.0500   10840.0000
-34.5500   10840.0000
-34.0500   10840.0000
-33.5500   10840.0000
-33.0500   10840.0000
-32.5500   10840.0000
-32.0500   10840.0000
-31.5500   10840.0000
-31.0500   10840.0000
-30.5500   10840.0000
-30.0500   10840.0000
-29.5500   10840.0000
-29.0500   10840.0000
-28.5500   10840.0000
-28.0500   10840.0000
-27.5500   10840.0000
-27.0500   10840.0000
-26.5500   10840.0000
-26.0500   10840.0000
-25.5500   10840.0000
-25.0500   10840.0000
-24.5500   10840.0000
-24.0500   10840.0000
-23.5500   10840.0000
-23.0500   10840.0000
-22.5500   10840.0000
-22.0500   10840.0000
-21.5500   10840.0000
-21.0500   10840.0000
-20.5500   10840.0000
-20.0500   10840.0000
-19.5500   10840.0000
-19.0500   10840.0000
-18.5500   10840.0000
-18.0500   10840.0000
-17.5500   10840.0000
-17.0500   10840.0000
-16.5500   10840.0000
-16.0500   10840.0000
-15.5500   10840.0000
-15.0500   10840.0000
-14.5500   10840.0000
-14.0500   10840.0000
-13.5500   10840.0000
-13.0500   10840.0000
-12.5500   10840.0000
-12.0500   10840.0000
-11.5500   10840.0000
-11.0500   10840.0000
-10.5500   10840.0000
-10.0500   10840.0000
-9.5500   10840.0000
-9.0500   10840.0000
-8.5500   10840.0000
-8.0500   10840.0000
-7.5500   10840.0000
-7.0500   10840.0000
-6.5500   10840.0000
-6.0500   10840.0000
-5.5500   10840.0000
-5.0500   10840.0000
-4.5500   10840.0000
-4.0500   10840.0000
-3.5500   10840.0000
-3.0500   10840.0000
-2.5500   10840.0000
-2.0500   10840.0000
-1.5500   10840.0000
-1.0500   10811.8798
-0.5500   10811.2354
-0.0500   10810.7998
0.4600   10810.0510
0.9700   10809.6121
1.4800   10808.9208
1.9900   10808.5997
2.5000   10808.1518
3.0100   10808.3363
3.5200   10808.9664
4.0300   10811.1409
4.5400   10814.9480
5.0500   10820.5009
5.5700   10825.1861
6.0800   10828.1594
6.5900   10829.5947
7.1000   10830.4677
7.6100   10830.6503
8.1200   10830.9679
8.6300   10830.9189
9.1400   10831.1334
9.6500   10831.1266
10.1600   10831.4663
10.6700   10831.6446
11.1800   10832.1726
11.6900   10832.5893
12.2000   10833.2422
12.7100   10833.7911
13.2200   10834.4408
13.7300   10834.9578
14.2400   10835.6049
14.7500   10836.0097
15.2600   10836.5764
15.7700   10836.8260
16.2900   10837.2909
16.8000   10837.3359
17.3100   10837.5958
17.8200   10837.4940
18.3300   10837.6429
18.8400   10837.4658
19.3500   10837.6415
19.8600   10837.4550
20.3700   10837.6014
20.8800   10837.4076
21.3900   10837.5799
21.9000   10837.3900
22.4100   10837.5500
22.9200   10837.3354
23.4300   10837.4772
23.9400   10837.1800
24.4500   10837.2577
24.9600   10836.8697
25.4700   10836.8777
25.9800   10836.4517
26.4900   10836.5264
27.0100   10836.1856
27.5200   10836.3994
28.0300   10836.2053
28.5400   10836.4756
29.0500   10836.3341
29.5600   10836.6025
30.0700   10836.6055
30.5800   10837.0398
31.0900   10837.1143
31.6000   10837.5682
32.1100   10837.5577
32.6200   10837.8288
33.1300   10837.6133
33.6400   10837.7569
34.1500   10837.5529
34.6600   10837.7936
35.1700   10837.7070
35.6800   10838.0625
36.1900   10838.0592
36.7000   10838.4372
37.2100   10838.4462
37.7300   10838.8862
38.2400   10838.9252
38.7500   10839.3644
39.2600   10839.3185
39.7700   10839.6507
40.2800   10839.4759
40.7900   10839.6929
41.3000   10839.4670
41.8100   10839.6306
42.3200   10839.3627
42.8300   10839.5321
43.3400   10839.2719
43.8500   10839.4361
44.3600   10839.2140
44.8700   10839.4179
45.3800   10839.3022
45.8900   10839.5794
46.4000   10839.4492
46.9100   10839.7458
47.4200   10839.5490
47.9300   10839.7430
48.4500   10839.4917
48.9600   10839.6186
49.4700   10839.3571
49.9800   10839.5835
50.4900   10839.3759
51.0000   10839.5904
51.5100   10839.3638
52.0200   10839.5474
52.5300   10839.2240
53.0400   10839.3725
53.5500   10839.0980
54.0600   10839.2710
54.5700   10839.0462
55.0800   10839.2763
55.5900   10839.0638
56.1000   10839.2787
56.6100   10838.9993
57.1200   10839.2267
57.6300   10838.9895
58.1400   10839.1786
58.6500   10838.9151
59.1700   10839.0669
59.6800   10838.8289
60.1900   10839.0314
60.7000   10838.8105
61.2100   10839.0719
61.7200   10838.8651
62.2300   10839.1220
62.7400   10838.8922
63.2500   10839.1845
63.7600   10838.9684
64.2700   10839.1701
64.7800   10838.8554
65.2900   10838.9769
65.8000   10838.5814
66.3100   10838.6636
66.8200   10838.3130
67.3300   10838.4958
67.8400   10838.3331
68.3500   10838.6371
68.8600   10838.4280
69.3700   10838.7109
69.8900   10838.4683
70.4000   10838.6560
70.9100   10838.2840
71.4200   10838.4375
71.9300   10838.1160
72.4400   10838.2738
72.9500   10838.0589
73.4600   10838.2879
73.9700   10838.1166
74.4800   10838.4040
74.9900   10838.2969
75.5000   10838.5827
76.0100   10838.4195
76.5200   10838.6778
77.0300   10838.4094
77.5400   10838.5645
78.0500   10838.2014
78.5600   10838.2957
79.0700   10837.8669
79.5800   10837.8608
80.0900   10837.3726
80.6100   10837.3051
81.1200   10836.7295
81.6300   10836.6290
82.1400   10836.0667
82.6500   10836.0162
83.1600   10835.4414
83.6700   10835.3521
84.1800   10834.5344
84.6900   10834.0467
85.2000   10832.2530
85.7100   10829.9873
86.2200   10805.0441
86.7300   10792.4029
87.2400   10767.0418
87.7500   10759.0729
88.2600   10757.9254
88.7700   10756.9913
89.2800   10756.1702
89.7900   10754.8533
90.3000   10753.3672
90.8100   10751.6722
91.3300   10753.9029
91.8400   10764.5826
92.3500   10788.3506
92.8600   10813.3421
93.3700   10814.7483
93.8800   10815.8526
94.3900   10816.0807
94.9000   10816.6967
95.4100   10816.7399
95.9200   10817.1918
96.4300   10817.0972
96.9400   10817.4006
97.4500   10817.1939
97.9600   10817.4534
98.4700   10817.3427
98.9800   10817.6096
99.4900   10817.5275
100.0000   10817.8387
100.5100   10817.7505
101.0200   10818.0740
101.5300   10818.0470
102.0500   10818.3904
102.5600   10818.3549
103.0700   10818.7241
103.5800   10818.6174
104.0900   10818.8427
104.6000   10818.5948
105.1100   10818.7039
105.6200   10818.4053
106.1300   10818.4949
106.6400   10818.2001
107.1500   10818.3434
107.6600   10818.0814
108.1700   10818.2762
108.6800   10818.1237
109.1900   10818.4065
109.7000   10818.3263
110.2100   10818.5596
110.7200   10818.4299
111.2300   10818.5955
111.7400   10818.3669
112.2500   10818.5091
112.7700   10818.2825
113.2800   10818.4168
113.7900   10818.2365
114.3000   10818.4290
114.8100   10818.2698
115.3200   10818.4510
115.8300   10818.3144
116.3400   10818.5633
116.8500   10818.4639
117.3600   10818.7022
117.8700   10818.6638
118.3800   10818.9938
118.8900   10819.0414
119.4000   10819.3725
119.9100   10819.4115
120.4200   10819.7293
120.9300   10819.7453
121.4400   10820.0764
121.9500   10820.0549
122.4600   10820.2737
122.9700   10820.0365
123.4900   10820.1122
124.0000   10819.7175
124.5100   10819.7295
125.0200   10819.4533
125.5300   10819.6154
126.0400   10819.6689
126.5500   10820.1116
127.0600   10820.2747
127.5700   10820.7436
128.0800   10820.7441
128.5900   10821.0316
129.1000   10820.8848
129.6100   10821.0546
130.1200   10820.8988
130.6300   10821.1223
131.1400   10821.0339
131.6500   10821.3524
132.1600   10821.4751
132.6700   10821.8754
133.1800   10821.9745
133.6900   10822.2838
134.2100   10822.2317
134.7200   10822.3927
135.2300   10822.1605
135.7400   10822.2069
136.2500   10821.8838
136.7600   10821.8774
137.2700   10821.4633
137.7800   10821.5170
138.2900   10821.1798
138.8000   10821.2444
139.3100   10820.9652
139.8200   10821.0333
140.3300   10820.8008
140.8400   10820.9434
141.3500   10820.7470
141.8600   10821.0219
142.3700   10821.0092
142.8800   10821.3750
143.3900   10821.5414
143.9000   10822.0587
144.4100   10822.4319
144.9300   10823.0489
145.4400   10823.4382
145.9500   10823.9831
146.4600   10824.1496
146.9700   10824.4326
147.4800   10824.2772
147.9900   10824.2941
148.5000   10823.8335
149.0100   10823.6738
149.5200   10823.0582
150.0300   10822.8752
150.5400   10822.3158
151.0500   10822.1890
151.5600   10821.7861
152.0700   10821.7298
152.5800   10821.2669
153.0900   10821.1887
153.6000   10820.6804
154.1100   10820.6223
154.6200   10820.2198
155.1300   10820.3451
155.6500   10820.1471
156.1600   10820.3822
156.6700   10820.2220
157.1800   10820.3858
157.6900   10820.1562
158.2000   10820.2664
158.7100   10819.9633
159.2200   10820.1092
159.7300   10819.8657
160.2400   10820.1231
160.7500   10819.9872
161.2600   10820.2197
161.7700   10820.0607
162.2800   10820.2654
162.7900   10820.0444
163.3000   10820.2067
163.8100   10819.9874
164.3200   10820.1769
164.8300   10820.0647
165.3400   10820.2704
165.8500   10820.1042
166.3700   10820.2413
166.8800   10819.9650
167.3900   10820.0683
167.9000   10819.8166
168.4100   10820.0118
168.9200   10819.9265
169.4300   10820.2460
169.9400   10820.3183
170.4500   10820.6623
170.9600   10820.7227
171.4700   10820.9855
171.9800   10820.9227
172.4900   10821.1003
173.0000   10820.9605
173.5100   10821.1156
174.0200   10821.0048
174.5300   10821.2235
175.0400   10821.1415
175.5500   10821.3727
176.0600   10821.3281
176.5700   10821.5392
177.0900   10821.4326
177.6000   10821.6427
178.1100   10821.5633
178.6200   10821.7859
179.1300   10821.7085
179.6400   10821.9196
180.1500   10821.8390
180.6600   10821.9724
181.1700   10821.7542
181.6800   10821.8585
182.1900   10821.6599
182.7000   10821.7690
183.2100   10821.6561
183.7200   10821.8389
184.2300   10821.7513
184.7400   10821.9256
185.2500   10821.7551
185.7600   10821.8483
186.2700   10821.5713
186.7800   10821.5914
187.2900   10821.2854
187.8100   10821.3797
188.3200   10821.1505
188.8300   10821.3274
189.3400   10821.2457
189.8500   10821.4838
190.3600   10821.4267
190.8700   10821.6420
191.3800   10821.4347
191.8900   10821.5414
192.4000   10821.2858
192.9100   10821.3888
193.4200   10821.2360
193.9300   10821.4555
194.4400   10821.3994
194.9500   10821.6239
195.4600   10821.5339
195.9700   10821.6899
196.4800   10821.4849
196.9900   10821.5485
197.5000   10821.3053
198.0100   10821.3937
198.5300   10821.1545
199.0400   10821.3304
199.5500   10821.1926
200.0600   10821.3916
200.5700   10821.3939
201.0800   10821.6329
201.5900   10821.6460
202.1000   10821.9433
202.6100   10821.8691
203.1200   10822.0169
203.6300   10821.8330
204.1400   10821.9103
204.6500   10821.6905
205.1600   10821.7576
205.6700   10821.6332
206.1800   10821.8233
206.6900   10821.7309
207.2000   10821.9609
207.7100   10821.8961
208.2200   10822.1368
208.7300   10822.0637
209.2500   10822.2343
209.7600   10822.0956
210.2700   10822.1998
210.7800   10822.0381
211.2900   10822.1011
211.8000   10821.8921
212.3100   10821.9939
212.8200   10821.7895
213.3300   10821.8569
213.8400   10821.6854
214.3500   10821.7730
214.8600   10821.6064
215.3700   10821.7755
215.8800   10821.7376
216.3900   10821.9649
216.9000   10822.0085
217.4100   10822.3462
217.9200   10822.3932
218.4300   10822.6584
218.9400   10822.6480
219.4500   10822.7841
219.9700   10822.6145
220.4800   10822.6575
220.9900   10822.3849
221.5000   10822.3462
222.0100   10821.9835
222.5200   10821.9547
223.0300   10821.6099
223.5400   10821.6181
224.0500   10821.3284
224.5600   10821.4604
225.0700   10821.2433
225.5800   10821.3883
226.0900   10821.2056
226.6000   10821.3379
227.1100   10821.0933
227.6200   10821.2131
228.1300   10821.0480
228.6400   10821.1451
229.1500   10820.9957
229.6600   10821.2136
230.1700   10821.1767
230.6900   10821.4274
231.2000   10821.3314
231.7100   10821.5834
232.2200   10821.5057
232.7300   10821.7242
233.2400   10821.6425
233.7500   10821.8266
234.2600   10821.7642
234.7700   10821.9212
235.2800   10821.7809
235.7900   10821.9195
236.3000   10821.7609
236.8100   10821.9515
237.3200   10821.9096
237.8300   10822.1765
238.3400   10822.2595
238.8500   10822.5579
239.3600   10822.4558
239.8700   10822.6062
240.3800   10822.3782
240.8900   10822.4811
241.4100   10822.2144
241.9200   10822.3910
242.4300   10822.2781
242.9400   10822.4879
243.4500   10822.3464
243.9600   10822.4737
244.4700   10822.2335
244.9800   10822.3106
245.4900   10822.0609
246.0000   10822.1167
246.5100   10821.8292
247.0200   10821.9244
247.5300   10821.6345
248.0400   10821.6973
248.5500   10821.3994
249.0600   10821.5029
249.5700   10821.2698
250.0800   10821.4118
250.5900   10821.1779
251.1000   10821.3208
251.6100   10821.1191
252.1300   10821.3088
252.6400   10821.1067
253.1500   10821.2747
253.6600   10821.1127
254.1700   10821.2949
254.6800   10821.1909
255.1900   10821.3862
255.7000   10821.2395
256.2100   10821.3926
256.7200   10821.1647
257.2300   10821.2710
257.7400   10821.0242
258.2500   10821.1440
258.7600   10821.0169
259.2700   10821.2737
259.7800   10821.1680
260.2900   10821.3727
260.8000   10821.2265
261.3100   10821.3818
261.8200   10821.2529
262.3300   10821.3781
262.8500   10821.2275
263.3600   10821.3973
263.8700   10821.2835
264.3800   10821.4774
264.8900   10821.4820
265.4000   10821.6892
265.9100   10821.6836
266.4200   10821.9222
266.9300   10821.8192
267.4400   10821.9966
267.9500   10821.7871
268.4600   10821.8580
268.9700   10821.5889
269.4800   10821.6456
269.9900   10821.3669
270.5000   10821.4500
271.0100   10821.2314
271.5200   10821.3851
272.0300   10821.2635
272.5400   10821.4602
273.0500   10821.3779
273.5700   10821.5724
274.0800   10821.4801
274.5900   10821.6490
275.1000   10821.4395
275.6100   10821.5145
276.1200   10821.2457
276.6300   10821.2994
277.1400   10821.0347
277.6500   10821.0596
278.1600   10820.8311
278.6700   10820.9229
279.1800   10820.7110
279.6900   10820.8505
280.2000   10820.6763
280.7100   10820.8459
281.2200   10820.7399
281.7300   10820.9239
282.2400   10820.8849
282.7500   10821.1194
283.2600   10821.0885
283.7700   10821.3057
284.2900   10821.2234
284.8000   10821.3355
285.3100   10821.1373
285.8200   10821.2279
286.3300   10821.0638
286.8400   10821.1539
287.3500   10821.0004
287.8600   10821.0891
288.3700   10820.8464
288.8800   10820.8790
289.3900   10820.5902
289.9000   10820.6026
290.4100   10820.3199
290.9200   10820.3809
291.4300   10820.1882
291.9400   10820.3385
292.4500   10820.2447
292.9600   10820.4625
293.4700   10820.3924
293.9800   10820.6271
294.4900   10820.5747
295.0100   10820.8304
295.5200   10820.7973
296.0300   10821.0584
296.5400   10821.0579
297.0500   10821.2703
297.5600   10821.2078
298.0700   10821.3715
298.5800   10821.1789
299.0900   10821.2765
299.6000   10821.0961
300.1100   10821.2371
300.6200   10821.0502
301.1300   10821.1605
301.6400   10821.0404
302.1500   10821.2120
302.6600   10821.1127
303.1700   10821.2882
303.6800   10821.2183
304.1900   10821.4000
304.7000   10821.3398
305.2100   10821.5216
