#----------------------------------
# BOTDR
# DSTS: v.07.1
# Fri Oct 22 14:25:17 2021
#
# Channel No  = 0
# Partial   = 0
# Partial Start  = 0.00
# Partial End  = 3112.57
# Fibre Length    [m]   = 3112.57  0.00
# Fiber Delay    [m]   = 112.57
# Connection Point    [m]   = 192.66
# Rpt.period      [us]  = 65
# Pulse width     [ns]  = 30
# Frequency Start [MHz] = 10690.00
# Frequency End:  [MHz] = 10990.00
# Frequency Step: [MHz] = 5.00
# No.Averages:    [-]   = 12000
# Sampling Rate   [-]   = 0 (200.00MSs, spatial step = 0.50m)
# Input Range     [-]   = 2 (1V)
# Pulse Delay     [m]   = 100
# Post Pulse Data [m]   = 0
# Fiber Type      [-]   = CH4 Land
# Fiber  temperature [C] = 27.00
# Fiber  Bril Frequency  [MHz] = 10840.00
# Fiber  Strain Coefficient  [ue/MHz] = 18.9150
# Fiber Temperature Coefficient [C/MHz] = 0.9765
# Fiber Refractive Index = 1.4682
# Fiber Sigma = 0.2000
#
#----------------------------------
6104

-112.5700   0.0000
-112.0700   0.0000
-111.5700   0.0000
-111.0700   0.0000
-110.5700   0.0000
-110.0700   0.0000
-109.5700   0.0000
-109.0700   0.0000
-108.5700   0.0000
-108.0700   0.0000
-107.5700   0.0000
-107.0700   0.0000
-106.5700   0.0000
-106.0700   0.0000
-105.5700   0.0000
-105.0700   0.0000
-104.5700   0.0000
-104.0700   0.0000
-103.5700   0.0000
-103.0700   0.0000
-102.5700   0.0000
-102.0700   0.0000
-101.5700   0.0000
-101.0700   0.0000
-100.5700   0.0000
-100.0700   0.0000
-99.5700   0.0000
-99.0700   0.0000
-98.5700   0.0000
-98.0700   0.0000
-97.5700   0.0000
-97.0700   0.0000
-96.5700   0.0000
-96.0700   0.0000
-95.5700   0.0000
-95.0700   0.0000
-94.5700   0.0000
-94.0700   0.0000
-93.5700   0.0000
-93.0700   0.0000
-92.5700   0.0000
-92.0700   0.0000
-91.5700   0.0000
-91.0700   0.0000
-90.5700   0.0000
-90.0700   0.0000
-89.5700   0.0000
-89.0700   0.0000
-88.5700   0.0000
-88.0700   0.0000
-87.5700   0.0000
-87.0700   0.0000
-86.5700   0.0000
-86.0700   0.0000
-85.5700   0.0000
-85.0700   0.0000
-84.5700   0.0000
-84.0700   0.0000
-83.5700   0.0000
-83.0700   0.0000
-82.5700   0.0000
-82.0700   0.0000
-81.5700   0.0000
-81.0700   0.0000
-80.5700   0.0000
-80.0700   0.0000
-79.5700   0.0000
-79.0700   0.0000
-78.5700   0.0000
-78.0700   0.0000
-77.5700   0.0000
-77.0700   0.0000
-76.5700   0.0000
-76.0700   0.0000
-75.5700   0.0000
-75.0700   0.0000
-74.5700   0.0000
-74.0700   0.0000
-73.5700   0.0000
-73.0700   0.0000
-72.5700   0.0000
-72.0700   0.0000
-71.5700   0.0000
-71.0700   0.0000
-70.5700   0.0000
-70.0700   0.0000
-69.5700   0.0000
-69.0700   0.0000
-68.5700   0.0000
-68.0700   0.0000
-67.5700   0.0000
-67.0700   0.0000
-66.5700   0.0000
-66.0700   0.0000
-65.5700   0.0000
-65.0700   0.0000
-64.5700   0.0000
-64.0700   0.0000
-63.5700   0.0000
-63.0700   0.0000
-62.5700   0.0000
-62.0700   0.0000
-61.5700   0.0000
-61.0700   0.0000
-60.5700   0.0000
-60.0700   0.0000
-59.5700   0.0000
-59.0700   0.0000
-58.5700   0.0000
-58.0700   0.0000
-57.5700   0.0000
-57.0700   0.0000
-56.5700   0.0000
-56.0700   0.0000
-55.5700   0.0000
-55.0700   0.0000
-54.5700   0.0000
-54.0700   0.0000
-53.5700   0.0000
-53.0700   0.0000
-52.5700   0.0000
-52.0700   0.0000
-51.5700   0.0000
-51.0700   0.0000
-50.5700   0.0000
-50.0700   0.0000
-49.5700   0.0000
-49.0700   0.0000
-48.5700   0.0000
-48.0700   0.0000
-47.5700   0.0000
-47.0700   0.0000
-46.5700   0.0000
-46.0700   0.0000
-45.5700   0.0000
-45.0700   0.0000
-44.5700   0.0000
-44.0700   0.0000
-43.5700   0.0000
-43.0700   0.0000
-42.5700   0.0000
-42.0700   0.0000
-41.5700   0.0000
-41.0700   0.0000
-40.5700   0.0000
-40.0700   0.0000
-39.5700   0.0000
-39.0700   0.0000
-38.5700   0.0000
-38.0700   0.0000
-37.5700   0.0000
-37.0700   0.0000
-36.5700   0.0000
-36.0700   0.0000
-35.5700   0.0000
-35.0700   0.0000
-34.5700   0.0000
-34.0700   0.0000
-33.5700   0.0000
-33.0700   0.0000
-32.5700   0.0000
-32.0700   0.0000
-31.5700   0.0000
-31.0700   0.0000
-30.5700   0.0000
-30.0700   0.0000
-29.5700   0.0000
-29.0700   0.0000
-28.5700   0.0000
-28.0700   0.0000
-27.5700   0.0000
-27.0700   0.0000
-26.5700   0.0000
-26.0700   0.0000
-25.5700   0.0000
-25.0700   0.0000
-24.5700   0.0000
-24.0700   0.0000
-23.5700   0.0000
-23.0700   0.0000
-22.5700   0.0000
-22.0700   0.0000
-21.5700   0.0000
-21.0700   0.0000
-20.5700   0.0000
-20.0700   0.0000
-19.5700   0.0000
-19.0700   0.0000
-18.5700   0.0000
-18.0700   0.0000
-17.5700   0.0000
-17.0700   0.0000
-16.5700   0.0000
-16.0700   0.0000
-15.5700   0.0000
-15.0700   0.0000
-14.5700   0.0000
-14.0700   0.0000
-13.5700   0.0000
-13.0700   0.0000
-12.5700   0.0000
-12.0700   0.0000
-11.5700   0.0000
-11.0700   0.0000
-10.5700   0.0000
-10.0700   0.0000
-9.5700   0.0000
-9.0700   0.0000
-8.5700   0.0000
-8.0700   0.0000
-7.5700   0.0000
-7.0700   0.0000
-6.5700   0.0000
-6.0700   0.0000
-5.5700   0.0000
-5.0700   0.0000
-4.5700   0.0000
-4.0700   0.0000
-3.5700   0.0000
-3.0700   0.0000
-2.5700   0.0000
-2.0700   0.0000
-1.5700   0.0000
-1.0700   -39.6311
-0.5700   16.0777
-0.0700   14.2599
0.4400   12.2296
0.9500   7.4357
1.4600   45.2502
1.9700   3.6334
2.4800   -28.0312
2.9900   -39.3414
3.5000   -49.3941
4.0100   -72.5345
4.5200   9.7799
5.0300   23.9868
5.5500   10.1344
6.0600   -0.8704
6.5700   -13.5496
7.0800   10.9433
7.5900   14.1157
8.1000   -18.3243
8.6100   -16.6219
9.1200   -20.8902
9.6300   -27.7920
10.1400   -23.3954
10.6500   -16.5698
11.1600   -17.3299
11.6700   -21.4209
12.1800   -10.1943
12.6900   -23.5040
13.2000   -37.1160
13.7100   -20.3348
14.2200   0.2349
14.7300   5.4339
15.2400   -3.1953
15.7500   7.8918
16.2700   17.5720
16.7800   23.8695
17.2900   23.2565
17.8000   -2.1743
18.3100   -3.4660
18.8200   6.0149
19.3300   4.9874
19.8400   -31.7027
20.3500   -10.5099
20.8600   -25.1740
21.3700   -30.6397
21.8800   -32.2894
22.3900   -27.3196
22.9000   -24.1105
23.4100   -2.5797
23.9200   0.6465
24.4300   2.0549
24.9400   -18.7386
25.4500   -14.6166
25.9600   -29.6272
26.4700   3.9609
26.9900   0.9858
27.5000   -14.0259
28.0100   -2.5982
28.5200   7.0967
29.0300   15.5667
29.5400   19.6870
30.0500   3.7528
30.5600   18.0259
31.0700   -0.6228
31.5800   29.1037
32.0900   32.6807
32.6000   10.7577
33.1100   -15.2991
33.6200   4.9177
34.1300   15.2553
34.6400   25.2529
35.1500   2.5151
35.6600   -16.8888
36.1700   -9.9777
36.6800   11.0192
37.1900   1.0915
37.7100   -11.3754
38.2200   -15.9495
38.7300   -1.9219
39.2400   -12.0667
39.7500   2.6859
40.2600   -5.0644
40.7700   9.8436
41.2800   32.6970
41.7900   15.0184
42.3000   15.9322
42.8100   26.3544
43.3200   19.6181
43.8300   8.2880
44.3400   0.3985
44.8500   -5.1726
45.3600   -29.7830
45.8700   -20.5979
46.3800   -13.4699
46.8900   16.0013
47.4000   17.8846
47.9100   14.7241
48.4300   -32.6732
48.9400   -22.1931
49.4500   -11.0783
49.9600   6.0800
50.4700   -14.6870
50.9800   -15.8209
51.4900   -19.6509
52.0000   7.4899
52.5100   -5.7381
53.0200   4.5891
53.5300   -22.8400
54.0400   -8.8355
54.5500   -25.7583
55.0600   9.2793
55.5700   -4.3542
56.0800   -8.4758
56.5900   3.8359
57.1000   31.5634
57.6100   3.4571
58.1200   7.7011
58.6300   -11.9172
59.1500   7.7301
59.6600   -5.4944
60.1700   1.3756
60.6800   -25.1880
61.1900   18.4646
61.7000   -27.1731
62.2100   -12.2078
62.7200   -1.9512
63.2300   -8.4153
63.7400   -21.5275
64.2500   -6.7904
64.7600   -42.7445
65.2700   0.5287
65.7800   2.4410
66.2900   -11.1672
66.8000   -12.7369
67.3100   -1.8093
67.8200   1.8840
68.3300   23.6399
68.8400   -7.5012
69.3500   13.8665
69.8700   -20.1547
70.3800   -14.1332
70.8900   -31.6939
71.4000   11.4654
71.9100   13.2616
72.4200   18.5794
72.9300   34.4926
73.4400   39.6536
73.9500   27.7904
74.4600   22.8249
74.9700   -4.9110
75.4800   1.1695
75.9900   -17.2416
76.5000   -20.6347
77.0100   -5.1496
77.5200   18.4708
78.0300   19.4295
78.5400   10.2154
79.0500   37.2824
79.5600   24.1783
80.0700   -7.9888
80.5900   -7.7950
81.1000   -12.2483
81.6100   11.6575
82.1200   -5.1216
82.6300   -1.2650
83.1400   6.0358
83.6500   12.0753
84.1600   33.2762
84.6700   1.7302
85.1800   -15.8499
85.6900   12.9952
86.2000   -22.0130
86.7100   11.5799
87.2200   -83.2541
87.7300   -128.4166
88.2400   -108.7626
88.7500   -154.4822
89.2600   -205.7208
89.7700   -321.7466
90.2800   -970.3109
90.7900   -168.6054
91.3100   -851.1750
91.8200   -851.1750
92.3300   -313.5404
92.8400   -153.7981
93.3500   -79.1903
93.8600   -37.8761
94.3700   -50.8401
94.8800   -45.1973
95.3900   -24.9687
95.9000   -40.3859
96.4100   7.0604
96.9200   -29.1085
97.4300   -10.5055
97.9400   2.7673
98.4500   -7.5090
98.9600   15.3369
99.4700   -3.7203
99.9800   -26.1318
100.4900   -51.0594
101.0000   -20.7780
101.5100   -17.5358
102.0300   -10.4751
102.5400   7.1549
103.0500   12.0863
103.5600   -3.2196
104.0700   -14.5606
104.5800   -4.6333
105.0900   -17.7053
105.6000   -23.6502
106.1100   -36.2645
106.6200   -13.2467
107.1300   -14.2284
107.6400   -15.4194
108.1500   -32.0792
108.6600   -15.6161
109.1700   9.5757
109.6800   28.3341
110.1900   0.0102
110.7000   9.9131
111.2100   19.5835
111.7200   -7.1487
112.2300   -29.2455
112.7500   18.3348
113.2600   -27.1362
113.7700   -21.9071
114.2800   8.0167
114.7900   14.4684
115.3000   -10.6443
115.8100   4.0208
116.3200   -18.4019
116.8300   33.5837
117.3400   25.5795
117.8500   13.7218
118.3600   15.3402
118.8700   3.3728
119.3800   -33.7807
119.8900   16.6350
120.4000   23.5662
120.9100   7.8265
121.4200   19.8496
121.9300   -7.2038
122.4400   -8.2027
122.9500   6.7085
123.4700   13.2038
123.9800   29.4597
124.4900   10.1554
125.0000   13.8497
125.5100   -12.3803
126.0200   -4.3059
126.5300   1.9284
127.0400   -1.6841
127.5500   -0.5692
128.0600   -50.3372
128.5700   -37.8526
129.0800   -33.4749
129.5900   -35.2770
130.1000   -35.8396
130.6100   -21.4876
131.1200   -15.3976
131.6300   -35.6276
132.1400   -10.1134
132.6500   -34.8590
133.1600   -18.4050
133.6700   1.8495
134.1900   -19.9840
134.7000   -4.8755
135.2100   -1.9110
135.7200   0.2882
136.2300   -36.8240
136.7400   -40.4821
137.2500   -15.9226
137.7600   13.9432
138.2700   30.6011
138.7800   24.1661
139.2900   19.9279
139.8000   -2.3844
140.3100   -39.6492
140.8200   -32.9118
141.3300   15.8580
141.8400   19.6646
142.3500   23.1755
142.8600   12.2946
143.3700   -14.1792
143.8800   -6.3413
144.3900   -14.6689
144.9100   -33.8863
145.4200   -44.0103
145.9300   -30.4371
146.4400   -59.0744
146.9500   -36.4084
147.4600   4.1562
147.9700   -26.4027
148.4800   -30.4272
148.9900   -27.6222
149.5000   -29.1250
150.0100   -38.3711
150.5200   -41.5092
151.0300   -10.7049
151.5400   -13.5680
152.0500   13.5945
152.5600   -59.5442
153.0700   -73.3199
153.5800   -20.4621
154.0900   -18.9243
154.6000   -19.4927
155.1100   -24.5597
155.6300   -59.1870
156.1400   -23.9865
156.6500   -29.4094
157.1600   -2.2485
157.6700   11.7643
158.1800   12.4272
158.6900   2.7188
159.2000   20.3978
159.7100   -39.9070
160.2200   -22.4296
160.7300   19.9967
161.2400   17.9432
161.7500   -48.0180
162.2600   -3.2507
162.7700   -3.3756
163.2800   23.2322
163.7900   -24.9905
164.3000   -22.5523
164.8100   -29.5236
165.3200   19.3198
165.8300   5.8304
166.3500   -12.6490
166.8600   -23.9013
167.3700   32.9804
167.8800   24.1754
168.3900   19.5482
168.9000   -25.0009
169.4100   -16.6462
169.9200   -46.3622
170.4300   -24.5876
170.9400   -36.4125
171.4500   15.0891
171.9600   -32.6498
172.4700   -22.9539
172.9800   -37.3985
173.4900   -20.5612
174.0000   -22.2042
174.5100   -13.5618
175.0200   -25.5060
175.5300   11.6519
176.0400   -20.8491
176.5500   5.6488
177.0700   8.7414
177.5800   43.4189
178.0900   1.9640
178.6000   -3.6502
179.1100   -24.9441
179.6200   19.7545
180.1300   -6.8260
180.6400   46.2841
181.1500   37.7227
181.6600   -12.1730
182.1700   -57.9888
182.6800   -11.1664
183.1900   14.2494
183.7000   18.0981
184.2100   -24.7604
184.7200   35.6081
185.2300   -11.4145
185.7400   -7.7427
186.2500   -18.6844
186.7600   -27.3379
187.2700   -58.0380
187.7900   -27.9182
188.3000   -21.4096
188.8100   -3.0291
189.3200   -19.6461
189.8300   -1.8189
190.3400   -16.0287
190.8500   36.4553
191.3600   -40.0804
191.8700   -17.2511
192.3800   25.7641
192.8900   42.8060
193.4000   25.1430
193.9100   20.8157
194.4200   9.9164
194.9300   77.8258
195.4400   37.5286
195.9500   39.2831
196.4600   46.7480
196.9700   22.9066
197.4800   6.3578
197.9900   22.0828
198.5100   28.5811
199.0200   12.0887
199.5300   -19.8950
200.0400   22.6313
200.5500   -3.6847
201.0600   13.0219
201.5700   1.0139
202.0800   47.3220
202.5900   9.7522
203.1000   21.0900
203.6100   26.0407
204.1200   6.2150
204.6300   10.7083
205.1400   35.1013
205.6500   29.0955
206.1600   -21.5962
206.6700   -29.1336
207.1800   -49.7355
207.6900   -29.1965
208.2000   -29.5001
208.7100   22.2905
209.2300   30.9237
209.7400   15.4845
210.2500   5.9932
210.7600   48.5774
211.2700   22.2112
211.7800   17.8346
212.2900   33.3766
212.8000   2.7345
213.3100   12.6361
213.8200   24.0309
214.3300   11.6052
214.8400   49.5404
215.3500   30.3130
215.8600   16.1740
216.3700   11.9645
216.8800   12.4467
217.3900   12.6864
217.9000   23.2791
218.4100   29.4487
218.9200   10.3264
219.4300   -7.4072
219.9500   2.1551
220.4600   -34.2528
220.9700   -46.2187
221.4800   -0.6801
221.9900   33.2967
222.5000   32.5639
223.0100   -13.4870
223.5200   -19.7379
224.0300   18.0727
224.5400   -9.3067
225.0500   -19.3208
225.5600   -39.0450
226.0700   -8.0327
226.5800   2.5116
227.0900   -7.5345
227.6000   -20.5625
228.1100   -6.2932
228.6200   -4.8427
229.1300   14.8582
229.6400   13.4587
230.1500   28.8914
230.6700   -31.7740
231.1800   -27.7592
231.6900   27.8887
232.2000   69.4266
232.7100   25.4127
233.2200   55.3127
233.7300   4.5490
234.2400   22.5973
234.7500   43.5250
235.2600   50.4856
235.7700   22.6888
236.2800   1.3587
236.7900   -20.4289
237.3000   8.7517
237.8100   -23.0254
238.3200   7.3994
238.8300   1.2375
239.3400   10.8999
239.8500   -23.0730
240.3600   -48.2660
240.8700   -35.7309
241.3900   19.5944
241.9000   -5.5847
242.4100   1.0877
242.9200   4.5330
243.4300   29.5986
243.9400   -17.3561
244.4500   5.6821
244.9600   -8.8059
245.4700   27.6397
245.9800   -7.7253
246.4900   31.5922
247.0000   5.2801
247.5100   5.0005
248.0200   -4.8187
248.5300   -17.3226
249.0400   -13.9519
249.5500   13.7825
250.0600   16.1470
250.5700   34.3026
251.0800   26.3855
251.5900   30.4767
252.1100   41.6713
252.6200   38.9231
253.1300   30.3540
253.6400   41.2623
254.1500   49.5950
254.6600   1.1058
255.1700   -4.4463
255.6800   -8.6909
256.1900   -12.2793
256.7000   -4.8782
257.2100   17.8504
257.7200   26.2591
258.2300   25.4085
258.7400   30.3530
259.2500   43.4686
259.7600   42.9884
260.2700   10.1526
260.7800   31.8398
261.2900   16.2905
261.8000   -34.6331
262.3100   -22.0605
262.8300   -0.7742
263.3400   13.9911
263.8500   -8.8180
264.3600   4.8785
264.8700   3.0859
265.3800   -8.8388
265.8900   -12.9085
266.4000   5.7506
266.9100   -20.6792
267.4200   -19.9664
267.9300   -9.3733
268.4400   2.5398
268.9500   21.6705
269.4600   -9.0666
269.9700   -7.5685
270.4800   4.8917
270.9900   8.8495
271.5000   -15.8623
272.0100   -31.4966
272.5200   8.0368
273.0300   -50.3161
273.5500   -15.4641
274.0600   23.8876
274.5700   4.3214
275.0800   -3.9643
275.5900   16.9111
276.1000   -7.9165
276.6100   -0.1128
277.1200   -24.1645
277.6300   -16.5032
278.1400   0.2023
278.6500   4.1207
279.1600   -21.6376
279.6700   -11.0756
280.1800   -23.6353
280.6900   -6.3282
281.2000   3.0650
281.7100   -23.9100
282.2200   -37.3305
282.7300   29.0129
283.2400   4.4803
283.7500   43.6117
284.2700   14.8048
284.7800   1.6018
285.2900   -3.5507
285.8000   -8.1632
286.3100   -37.8557
286.8200   40.0540
287.3300   33.3637
287.8400   48.8202
288.3500   30.8577
288.8600   54.4534
289.3700   37.2405
289.8800   64.2656
290.3900   25.2280
290.9000   55.1851
291.4100   28.4288
291.9200   42.7091
292.4300   -25.5905
292.9400   -16.0017
293.4500   13.7790
293.9600   31.2409
294.4700   30.0033
294.9900   8.6933
295.5000   -3.8273
296.0100   21.9780
296.5200   9.3063
297.0300   27.8991
297.5400   16.5381
298.0500   -20.3418
298.5600   1.1381
299.0700   27.9163
299.5800   -9.3970
300.0900   -24.7897
300.6000   -31.9509
301.1100   -15.3485
301.6200   -29.0140
302.1300   22.5931
302.6400   36.4336
303.1500   43.7015
303.6600   37.6985
304.1700   61.1090
304.6800   17.3264
305.1900   -11.0899
305.7100   -33.9581
306.2200   -26.5492
306.7300   -4.1395
307.2400   40.6033
307.7500   -13.0564
308.2600   1.1242
308.7700   -14.0500
309.2800   6.4027
309.7900   12.4661
310.3000   50.3456
310.8100   49.9733
311.3200   44.8123
311.8300   12.0316
312.3400   37.0091
312.8500   -12.7976
313.3600   5.9144
313.8700   3.6460
314.3800   14.8382
314.8900   4.6905
315.4000   -8.3732
315.9100   3.7595
316.4300   9.8643
316.9400   -15.9848
317.4500   30.8411
317.9600   6.8454
318.4700   36.5336
318.9800   67.0279
319.4900   76.8016
320.0000   26.9998
320.5100   34.5881
321.0200   5.1357
321.5300   -7.0385
322.0400   -12.9609
322.5500   -14.4177
323.0600   21.7364
323.5700   40.2258
324.0800   43.0603
324.5900   53.4590
325.1000   19.3456
325.6100   1.4749
326.1200   33.1267
326.6300   19.5901
327.1500   13.5989
327.6600   25.5483
328.1700   29.6194
328.6800   39.1016
329.1900   -14.4737
329.7000   -10.3215
330.2100   28.2971
330.7200   24.0295
331.2300   7.2913
331.7400   29.5657
332.2500   -3.6090
332.7600   0.4172
333.2700   -55.1994
333.7800   -61.0021
334.2900   -57.2107
334.8000   -18.6586
335.3100   17.0606
335.8200   14.5767
336.3300   58.4855
336.8400   46.2518
337.3500   17.8288
337.8700   0.1097
338.3800   -37.6383
338.8900   -35.0037
339.4000   1.6033
339.9100   19.3320
340.4200   2.3658
340.9300   -7.2499
341.4400   10.4407
341.9500   39.7080
342.4600   22.4181
342.9700   8.6950
343.4800   16.8413
343.9900   22.2701
344.5000   -2.2827
345.0100   -4.5928
345.5200   22.3459
346.0300   23.1327
346.5400   -583.5461
347.0500   -15.4563
347.5600   31.6848
348.0700   -0.6934
348.5900   1.9792
349.1000   -18.1513
349.6100   -21.7826
350.1200   34.6252
350.6300   61.1538
351.1400   35.4823
351.6500   40.6077
352.1600   13.0629
352.6700   4.2704
353.1800   -2.9107
353.6900   -27.9815
354.2000   -14.0396
354.7100   -14.5184
355.2200   25.5683
355.7300   61.6674
356.2400   17.4723
356.7500   -5.9925
357.2600   -33.9447
357.7700   -17.2204
358.2800   -16.8478
358.7900   42.3136
359.3100   -18.4043
359.8200   -48.2198
360.3300   -45.2953
360.8400   13.9505
361.3500   -22.0856
361.8600   -18.2721
362.3700   -10.4981
362.8800   -7.4491
363.3900   -29.2552
363.9000   -16.7173
364.4100   2.7976
364.9200   11.8586
365.4300   22.1317
365.9400   4.8784
366.4500   14.8982
366.9600   30.2740
367.4700   -35.1581
367.9800   -21.5678
368.4900   12.3841
369.0000   -13.9112
369.5100   -6.3733
370.0300   -12.4247
370.5400   7.1677
371.0500   47.9603
371.5600   46.4184
372.0700   17.9993
372.5800   -14.8540
373.0900   -41.9083
373.6000   -7.6690
374.1100   -2.2676
374.6200   -34.0522
375.1300   -2.3068
375.6400   -30.8432
376.1500   36.3825
376.6600   65.4207
