#----------------------------------
# BOTDR
# DSTS: v.07.1
# Fri Oct 22 13:54:52 2021
#
# Channel No  = 0
# Partial   = 0
# Partial Start  = 0.00
# Partial End  = 5118.55
# Fibre Length    [m]   = 5118.55  0.00
# Fiber Delay    [m]   = 118.55
# Connection Point    [m]   = 198.64
# Rpt.period      [us]  = 65
# Pulse width     [ns]  = 40
# Frequency Start [MHz] = 10690.00
# Frequency End:  [MHz] = 10990.00
# Frequency Step: [MHz] = 5.00
# No.Averages:    [-]   = 12000
# Sampling Rate   [-]   = 2 (50.00MSs, spatial step = 2.00m)
# Input Range     [-]   = 2 (1V)
# Pulse Delay     [m]   = 100
# Post Pulse Data [m]   = 0
# Fiber Type      [-]   = CH4 Land
# Fiber  temperature [C] = 27.00
# Fiber  Bril Frequency  [MHz] = 10840.00
# Fiber  Strain Coefficient  [ue/MHz] = 18.9150
# Fiber Temperature Coefficient [C/MHz] = 0.9765
# Fiber Refractive Index = 1.4682
# Fiber Sigma = 0.2000
#
#----------------------------------
2509

-118.5500   0.0000
-116.5500   0.0000
-114.5500   0.0000
-112.5500   0.0000
-110.5500   0.0000
-108.5500   0.0000
-106.5500   0.0000
-104.5500   0.0000
-102.5500   0.0000
-100.5500   0.0000
-98.5500   0.0000
-96.5500   0.0000
-94.5500   0.0000
-92.5500   0.0000
-90.5500   0.0000
-88.5500   0.0000
-86.5500   0.0000
-84.5500   0.0000
-82.5500   0.0000
-80.5500   0.0000
-78.5500   0.0000
-76.5500   0.0000
-74.5500   0.0000
-72.5500   0.0000
-70.5500   0.0000
-68.5500   0.0000
-66.5500   0.0000
-64.5500   0.0000
-62.5500   0.0000
-60.5500   0.0000
-58.5500   0.0000
-56.5500   0.0000
-54.5500   0.0000
-52.5500   0.0000
-50.5500   0.0000
-48.5500   0.0000
-46.5500   0.0000
-44.5500   0.0000
-42.5500   0.0000
-40.5500   0.0000
-38.5500   0.0000
-36.5500   0.0000
-34.5500   0.0000
-32.5500   0.0000
-30.5500   0.0000
-28.5500   0.0000
-26.5500   0.0000
-24.5500   0.0000
-22.5500   0.0000
-20.5500   0.0000
-18.5500   0.0000
-16.5500   0.0000
-14.5500   0.0000
-12.5500   0.0000
-10.5500   0.0000
-8.5500   0.0000
-6.5500   0.0000
-4.5500   0.0000
-2.5500   -102.4116
-0.5500   -65.5183
1.4900   94.6252
3.5300   882.0549
5.5800   1646.5550
7.6200   687.9742
9.6600   620.5699
11.7000   618.5957
13.7400   661.2276
15.7900   669.3472
17.8300   665.2888
19.8700   671.7220
21.9100   671.9842
23.9500   670.1812
25.9900   665.3587
28.0400   666.8019
30.0800   679.9759
32.1200   692.9471
34.1600   683.0469
36.2000   686.0051
38.2500   692.8174
40.2900   683.4483
42.3300   666.5719
44.3700   654.2393
46.4100   648.3587
48.4600   634.4728
50.5000   628.6468
52.5400   635.4071
54.5800   637.1727
56.6200   644.6874
58.6700   618.0080
60.7100   578.2042
62.7500   558.0658
64.7900   564.7056
66.8300   584.8195
68.8700   611.0978
70.9200   623.4456
72.9600   620.1650
75.0000   618.8128
77.0400   613.3261
79.0800   607.0198
81.1300   600.2635
83.1700   563.4092
85.2100   4.9049
87.2500   -909.1701
89.2900   -988.8985
91.3400   -166.5363
93.3800   11.6003
95.4200   33.5248
97.4600   38.4103
99.5000   55.7869
101.5500   60.8501
103.5900   62.2761
105.6300   60.4726
107.6700   51.8411
109.7100   40.0180
111.7500   32.7319
113.8000   40.0806
115.8400   44.1867
117.8800   62.5201
119.9200   82.7701
121.9600   92.9683
124.0100   91.8320
126.0500   99.2373
128.0900   106.1476
130.1300   113.8261
132.1700   124.4225
134.2200   121.9430
136.2600   117.1962
138.3000   124.6212
140.3400   116.4214
142.3800   113.7218
144.4300   152.4824
146.4700   175.4838
148.5100   168.9827
150.5500   165.1045
152.5900   163.3388
154.6300   165.7735
156.6800   145.5487
158.7200   140.2876
160.7600   179.1289
162.8000   201.2189
164.8400   164.7464
166.8900   126.1473
168.9300   133.0186
170.9700   163.6402
173.0100   237.7201
175.0500   297.9010
177.1000   305.2340
179.1400   262.6588
181.1800   202.6175
183.2200   195.5212
185.2600   230.5181
187.3100   240.6887
189.3500   237.1743
191.3900   253.9637
193.4300   259.1170
195.4700   215.6940
197.5100   169.0113
199.5600   163.9684
201.6000   186.3413
203.6400   228.2856
205.6800   219.3374
207.7200   190.9867
209.7700   184.9807
211.8100   178.6525
213.8500   180.9352
215.8900   193.1763
217.9300   207.9553
219.9800   198.2033
222.0200   180.2997
224.0600   189.9510
226.1000   207.3272
228.1400   200.9803
230.1900   177.6877
232.2300   161.0330
234.2700   154.5728
236.3100   154.1680
238.3500   159.4769
240.3900   158.3425
242.4400   151.6436
244.4800   129.3778
246.5200   92.5612
248.5600   80.5255
250.6000   98.1242
252.6500   141.0915
254.6900   162.2737
256.7300   129.9384
258.7700   130.2049
260.8100   137.3229
262.8600   137.7347
264.9000   152.8029
266.9400   163.4938
268.9800   167.9097
271.0200   167.1965
273.0700   189.5658
275.1100   227.2354
277.1500   256.7786
279.1900   269.6057
281.2300   269.3761
283.2700   270.5147
285.3200   275.7512
287.3600   256.5488
289.4000   234.4514
291.4400   227.4691
293.4800   234.9296
295.5300   239.0768
297.5700   233.1969
299.6100   240.0299
301.6500   262.5507
303.6900   278.8841
305.7400   291.3254
307.7800   299.9055
309.8200   287.8459
311.8600   276.6887
313.9000   276.5351
315.9500   264.0685
317.9900   264.2991
320.0300   270.4830
322.0700   272.4697
324.1100   263.5553
326.1500   268.7444
328.2000   279.3151
330.2400   281.5420
332.2800   282.2877
334.3200   279.9589
336.3600   286.1618
338.4100   297.8815
340.4500   306.6915
342.4900   310.2368
344.5300   305.4038
346.5700   297.9796
348.6200   298.4984
350.6600   297.8120
352.7000   300.9646
354.7400   315.5133
356.7800   317.0815
358.8300   314.2696
360.8700   296.6171
362.9100   269.8791
364.9500   269.2500
366.9900   259.2805
369.0300   241.6794
371.0800   245.2948
373.1200   239.6570
375.1600   252.7207
377.2000   259.1838
379.2400   243.0717
381.2900   228.8730
383.3300   222.2233
385.3700   223.9578
387.4100   216.1079
389.4500   219.6103
391.5000   223.1505
393.5400   219.6521
395.5800   223.3299
397.6200   225.6127
399.6600   232.5349
401.7100   238.5388
403.7500   252.1365
405.7900   256.2015
407.8300   261.0028
409.8700   262.6322
411.9100   248.4571
413.9600   240.1659
416.0000   234.9278
418.0400   233.9145
420.0800   232.3694
422.1200   231.7251
424.1700   227.6260
426.2100   229.9172
428.2500   222.7503
430.2900   219.8821
432.3300   220.2413
434.3800   218.9653
436.4200   213.7242
438.4600   209.7955
440.5000   228.5679
442.5400   285.1356
444.5900   323.6282
446.6300   334.1585
448.6700   339.4515
450.7100   342.5204
452.7500   340.3183
454.7900   336.0871
456.8400   344.6959
458.8800   343.7319
460.9200   324.5991
462.9600   315.4720
465.0000   321.5521
467.0500   315.7396
469.0900   276.8856
471.1300   122.2652
473.1700   -25.0588
475.2100   -61.5555
477.2600   -62.8553
479.3000   -82.5982
481.3400   -93.4238
483.3800   -94.1054
485.4200   -93.5053
487.4700   -79.8187
489.5100   -61.3805
491.5500   -72.0342
493.5900   -112.3996
495.6300   -161.2711
497.6700   -184.7911
499.7200   -185.9186
501.7600   -195.5339
503.8000   -214.6827
505.8400   -210.2486
507.8800   -195.0710
509.9300   -190.3556
511.9700   -200.5431
514.0100   -201.1921
516.0500   -196.8148
518.0900   -196.7954
520.1400   -197.7783
522.1800   -189.8100
524.2200   -193.4878
526.2600   -187.8676
528.3000   -208.9067
530.3500   -262.2074
532.3900   -274.4420
534.4300   -286.3848
536.4700   -309.4410
538.5100   -313.8634
540.5500   -292.5503
542.6000   -304.6571
544.6400   -314.7906
546.6800   -329.5406
548.7200   -335.2811
550.7600   -324.4150
552.8100   -272.9633
554.8500   -105.8140
556.8900   83.0401
558.9300   159.1714
560.9700   159.3561
563.0200   119.4733
565.0600   93.8074
567.1000   76.7251
569.1400   85.9910
571.1800   89.5663
573.2300   81.7745
575.2700   86.6170
577.3100   90.0454
579.3500   112.7944
581.3900   164.5059
583.4300   209.6424
585.4800   194.3641
587.5200   173.4541
589.5600   210.0455
591.6000   254.5831
593.6400   248.6351
595.6900   240.9526
597.7300   259.7874
599.7700   271.7900
601.8100   237.8303
603.8500   188.5117
605.9000   169.0880
607.9400   162.4115
609.9800   143.4582
612.0200   130.5014
614.0600   151.1689
616.1100   142.3069
618.1500   98.7003
620.1900   80.4159
622.2300   71.7801
624.2700   84.5033
626.3100   112.7026
628.3600   138.1778
630.4000   169.6840
632.4400   192.8496
634.4800   198.8292
636.5200   194.9615
638.5700   191.2014
640.6100   192.1740
642.6500   198.4748
644.6900   202.8775
646.7300   186.4574
648.7800   166.9867
650.8200   163.7950
652.8600   161.7450
654.9000   150.8923
656.9400   144.7082
658.9900   138.5029
661.0300   135.4818
663.0700   163.9505
665.1100   203.6212
667.1500   213.3080
669.1900   222.6210
671.2400   215.9808
673.2800   205.4376
675.3200   208.2333
677.3600   207.2911
679.4000   197.2618
681.4500   211.3291
683.4900   231.3936
685.5300   249.8188
687.5700   265.1059
689.6100   282.2992
691.6600   293.1780
693.7000   295.3382
695.7400   270.8803
697.7800   221.3764
699.8200   219.4249
701.8700   276.5741
703.9100   330.4145
705.9500   372.8523
707.9900   415.3432
710.0300   452.2662
712.0700   458.2946
714.1200   457.6387
716.1600   441.5612
718.2000   421.1959
720.2400   416.8995
722.2800   410.5080
724.3300   395.1922
726.3700   379.8082
728.4100   346.3227
730.4500   336.0798
732.4900   354.8300
734.5400   371.8480
736.5800   380.5774
738.6200   386.2981
740.6600   397.0328
742.7000   413.3275
744.7500   411.2301
746.7900   404.5573
748.8300   380.8559
750.8700   360.1730
752.9100   352.1758
754.9500   346.3134
757.0000   345.1512
759.0400   337.3410
761.0800   328.6281
763.1200   346.7020
765.1600   350.4137
767.2100   353.7173
769.2500   356.6021
771.2900   349.2283
773.3300   335.5968
775.3700   324.7428
777.4200   319.2950
779.4600   320.4423
781.5000   326.7454
783.5400   315.8895
785.5800   316.5187
787.6300   323.4333
789.6700   312.8831
791.7100   309.8865
793.7500   318.3060
795.7900   316.4977
797.8300   276.6142
799.8800   242.1794
801.9200   283.3274
803.9600   319.4074
806.0000   323.8782
808.0400   320.3204
810.0900   329.3445
812.1300   311.1678
814.1700   291.1423
816.2100   309.4958
818.2500   321.0697
820.3000   313.7914
822.3400   306.1148
824.3800   295.8103
826.4200   289.0865
828.4600   303.2803
830.5100   320.2970
832.5500   317.9165
834.5900   309.7404
836.6300   309.0232
838.6700   294.9402
840.7100   262.6573
842.7600   258.6277
844.8000   287.0947
846.8400   289.9036
848.8800   294.7444
850.9200   295.5802
852.9700   288.3730
855.0100   308.2600
857.0500   323.7418
859.0900   319.0559
861.1300   301.7103
863.1800   284.8597
865.2200   270.0748
867.2600   255.6058
869.3000   242.2563
871.3400   253.0367
873.3900   278.7486
875.4300   309.0834
877.4700   330.3029
879.5100   344.0554
881.5500   350.1667
883.5900   278.8449
885.6400   206.5047
887.6800   187.6808
889.7200   198.6872
891.7600   233.6875
893.8000   261.0945
895.8500   294.9368
897.8900   330.4157
899.9300   323.0149
901.9700   294.6576
904.0100   291.6551
906.0600   316.6770
908.1000   324.8602
910.1400   301.3538
912.1800   242.8287
914.2200   178.9371
916.2700   141.0783
918.3100   154.5114
920.3500   164.9372
922.3900   183.7937
924.4300   193.2203
926.4700   222.2305
928.5200   264.7595
930.5600   232.2661
932.6000   191.4266
934.6400   180.6080
936.6800   173.4791
938.7300   156.3382
940.7700   157.5385
942.8100   166.8773
944.8500   164.8714
946.8900   178.4163
948.9400   198.2702
950.9800   240.4127
953.0200   266.6024
955.0600   243.9849
957.1000   212.9716
959.1500   206.1662
961.1900   201.7758
963.2300   159.8525
965.2700   160.1609
967.3100   252.6796
969.3500   381.7953
971.4000   453.4032
973.4400   469.8805
975.4800   454.8632
977.5200   394.2391
979.5600   296.2668
981.6100   246.4007
983.6500   240.1255
985.6900   227.0771
987.7300   197.3739
989.7700   213.8363
991.8200   239.5960
993.8600   244.6059
995.9000   232.3109
997.9400   224.5825
999.9800   235.1428
1002.0300   222.8880
1004.0700   160.0508
1006.1100   118.7665
1008.1500   93.5749
1010.1900   78.0017
1012.2300   64.1178
1014.2800   69.8230
1016.3200   124.7186
1018.3600   178.5108
1020.4000   205.5048
1022.4400   225.8159
1024.4900   268.8983
1026.5300   287.3468
1028.5700   242.6223
1030.6100   226.6359
1032.6500   228.5854
1034.7000   200.7738
1036.7400   175.3851
1038.7800   199.1145
1040.8200   225.5924
1042.8600   236.9251
1044.9100   240.4891
1046.9500   257.3619
1048.9900   294.9220
1051.0300   297.4139
1053.0700   239.7202
1055.1100   196.6076
1057.1600   144.3675
1059.2000   86.6719
1061.2400   51.8313
1063.2800   49.9614
1065.3200   70.6054
1067.3700   78.7740
1069.4100   110.3955
1071.4500   166.6537
1073.4900   231.1337
1075.5300   252.3117
1077.5800   236.4232
1079.6200   231.7979
1081.6600   198.8731
1083.7000   166.0013
1085.7400   180.2678
1087.7900   218.6081
1089.8300   256.0511
1091.8700   272.1511
1093.9100   284.3888
1095.9500   302.8649
1097.9900   332.9231
1100.0400   329.9548
1102.0800   298.6155
1104.1200   271.0068
1106.1600   246.1504
1108.2000   211.2405
1110.2500   190.3705
1112.2900   226.7693
1114.3300   248.3127
1116.3700   240.1414
1118.4100   231.0343
1120.4600   260.2708
1122.5000   287.2845
1124.5400   243.0777
1126.5800   192.8536
1128.6200   122.0908
1130.6700   68.1015
1132.7100   58.2419
1134.7500   112.8353
1136.7900   187.0863
1138.8300   216.5829
1140.8700   224.4863
1142.9200   254.0565
1144.9600   297.1917
1147.0000   326.3299
1149.0400   278.2824
1151.0800   232.9034
1153.1300   230.7017
1155.1700   214.3759
1157.2100   168.8400
1159.2500   160.2380
1161.2900   200.8204
1163.3400   217.7063
1165.3800   212.9336
1167.4200   225.4182
1169.4600   260.7893
1171.5000   261.1034
1173.5500   217.5128
1175.5900   196.2463
1177.6300   168.7679
1179.6700   142.7743
1181.7100   139.7397
1183.7500   171.0377
1185.8000   203.3762
1187.8400   203.2460
1189.8800   193.6663
1191.9200   199.2615
1193.9600   232.1653
1196.0100   242.7225
1198.0500   209.2606
1200.0900   191.9675
1202.1300   171.6739
1204.1700   134.7974
1206.2200   129.9608
1208.2600   175.9819
1210.3000   195.2106
1212.3400   182.7347
1214.3800   179.1416
1216.4300   189.6814
1218.4700   233.1587
1220.5100   231.9036
1222.5500   193.9279
1224.5900   182.2526
1226.6300   175.3939
1228.6800   162.9042
1230.7200   163.6533
1232.7600   197.6367
1234.8000   216.9856
1236.8400   217.3087
1238.8900   212.2827
1240.9300   227.9691
1242.9700   269.7721
1245.0100   257.9642
1247.0500   216.4721
1249.1000   200.4960
1251.1400   183.5783
1253.1800   164.6295
1255.2200   168.9257
1257.2600   209.8897
1259.3100   231.3542
1261.3500   249.2117
1263.3900   264.4934
1265.4300   294.6337
1267.4700   325.4562
1269.5100   282.2319
1271.5600   240.7970
1273.6000   222.5601
1275.6400   209.3257
1277.6800   168.4543
1279.7200   137.1861
1281.7700   158.6225
1283.8100   190.1331
1285.8500   216.0554
1287.8900   223.0636
1289.9300   244.0862
1291.9800   284.4566
1294.0200   285.1666
1296.0600   244.4751
1298.1000   210.9864
1300.1400   191.8784
1302.1900   154.3129
1304.2300   136.4750
1306.2700   154.5570
1308.3100   174.9376
1310.3500   188.9138
1312.3900   189.2699
1314.4400   202.4121
1316.4800   240.0033
1318.5200   239.1026
1320.5600   212.0014
1322.6000   202.0265
1324.6500   157.9224
1326.6900   100.4121
1328.7300   110.9045
1330.7700   152.2712
1332.8100   172.2409
1334.8600   193.4414
1336.9000   225.6919
1338.9400   271.8394
1340.9800   332.7928
1343.0200   331.6715
1345.0700   254.8395
1347.1100   198.2690
1349.1500   158.3344
1351.1900   128.3780
1353.2300   135.7660
1355.2700   167.9759
1357.3200   234.1567
1359.3600   315.5544
1361.4000   351.1366
1363.4400   368.4403
1365.4800   356.5794
1367.5300   353.2485
1369.5700   362.1468
1371.6100   352.1809
1373.6500   342.2482
1375.6900   324.8521
1377.7400   291.7876
1379.7800   296.5063
1381.8200   308.2001
1383.8600   306.9199
1385.9000   299.9865
1387.9500   270.9995
1389.9900   250.4762
1392.0300   265.3599
1394.0700   284.7343
1396.1100   248.7603
1398.1500   192.2336
1400.2000   156.2891
1402.2400   188.4463
1404.2800   241.8202
1406.3200   285.5182
1408.3600   312.0460
1410.4100   289.4076
1412.4500   252.3168
1414.4900   234.9493
1416.5300   212.6960
1418.5700   253.4787
1420.6200   323.2556
1422.6600   306.4496
1424.7000   198.2923
1426.7400   121.1583
1428.7800   136.6362
1430.8300   175.1365
1432.8700   201.7527
1434.9100   213.8638
1436.9500   230.2897
1438.9900   234.8673
1441.0300   205.0143
1443.0800   168.7461
1445.1200   146.5477
1447.1600   135.6802
1449.2000   155.4446
1451.2400   139.7538
1453.2900   129.4178
1455.3300   120.1451
1457.3700   135.9957
1459.4100   181.2960
1461.4500   196.0526
1463.5000   164.8535
1465.5400   144.4564
1467.5800   136.2205
1469.6200   120.2765
1471.6600   142.7035
1473.7100   182.2090
1475.7500   244.8381
1477.7900   270.6912
1479.8300   275.7926
1481.8700   274.8056
1483.9100   247.4257
1485.9600   239.3122
1488.0000   230.7236
1490.0400   261.4211
1492.0800   303.5148
1494.1200   318.0630
1496.1700   325.8086
1498.2100   323.3649
1500.2500   323.8870
1502.2900   318.6955
1504.3300   337.1116
1506.3800   362.4806
1508.4200   342.3067
1510.4600   294.9349
1512.5000   255.3252
1514.5400   239.4252
1516.5900   276.8492
1518.6300   332.1705
1520.6700   387.2977
1522.7100   425.2038
1524.7500   444.3378
1526.7900   452.8872
1528.8400   445.5169
1530.8800   416.2456
1532.9200   357.7140
1534.9600   290.9038
1537.0000   233.4528
1539.0500   225.7364
1541.0900   217.7477
1543.1300   201.7180
1545.1700   204.2944
1547.2100   221.2714
1549.2600   231.4145
1551.3000   241.1370
1553.3400   245.7170
1555.3800   257.6760
1557.4200   249.9481
1559.4700   232.0826
1561.5100   214.3318
1563.5500   125.7253
1565.5900   31.1567
1567.6300   28.3936
1569.6700   28.0733
1571.7200   13.1597
1573.7600   -15.7837
1575.8000   -26.7463
1577.8400   -12.7585
1579.8800   10.1700
1581.9300   30.5342
1583.9700   45.3258
1586.0100   54.3189
1588.0500   -6.4477
1590.0900   -42.2949
1592.1400   37.3075
1594.1800   89.8476
1596.2200   57.5327
1598.2600   63.4880
1600.3000   64.6329
1602.3500   61.8847
1604.3900   18.0031
1606.4300   -49.1395
1608.4700   -76.7773
1610.5100   -91.9839
1612.5500   -116.0364
1614.6000   -108.8165
1616.6400   -68.6408
1618.6800   -19.7702
1620.7200   31.0572
1622.7600   44.3593
1624.8100   109.8807
1626.8500   175.3290
1628.8900   166.4991
1630.9300   131.5929
1632.9700   126.6005
1635.0200   122.5334
1637.0600   129.3902
1639.1000   115.8498
1641.1400   115.6539
1643.1800   108.2517
1645.2300   72.3553
1647.2700   48.9115
1649.3100   37.7541
1651.3500   29.4662
1653.3900   37.1897
1655.4300   70.7681
1657.4800   86.8188
1659.5200   66.3889
1661.5600   66.3559
1663.6000   119.3605
1665.6400   162.8148
1667.6900   151.1670
1669.7300   132.2485
1671.7700   190.5505
1673.8100   224.9276
1675.8500   100.5400
1677.9000   65.1819
1679.9400   188.5529
1681.9800   264.7954
1684.0200   236.2941
1686.0600   229.8560
1688.1100   249.7715
1690.1500   302.6658
1692.1900   350.9369
1694.2300   382.0180
1696.2700   397.3702
1698.3100   418.4274
1700.3600   487.8951
1702.4000   530.0253
1704.4400   509.2187
1706.4800   502.7468
1708.5200   456.6940
1710.5700   428.8414
1712.6100   465.0772
