#----------------------------------
# BOTDR
# DSTS: v.07.1
# Fri Oct 22 14:14:59 2021
#
# Channel No  = 0
# Partial   = 0
# Partial Start  = 0.00
# Partial End  = 3111.40
# Fibre Length    [m]   = 3111.40  0.00
# Fiber Delay    [m]   = 111.40
# Connection Point    [m]   = 191.49
# Rpt.period      [us]  = 65
# Pulse width     [ns]  = 10
# Frequency Start [MHz] = 10690.00
# Frequency End:  [MHz] = 10990.00
# Frequency Step: [MHz] = 5.00
# No.Averages:    [-]   = 12000
# Sampling Rate   [-]   = 0 (200.00MSs, spatial step = 0.50m)
# Input Range     [-]   = 2 (1V)
# Pulse Delay     [m]   = 100
# Post Pulse Data [m]   = 0
# Fiber Type      [-]   = CH4 Land
# Fiber  temperature [C] = 27.00
# Fiber  Bril Frequency  [MHz] = 10840.00
# Fiber  Strain Coefficient  [ue/MHz] = 18.9150
# Fiber Temperature Coefficient [C/MHz] = 0.9765
# Fiber Refractive Index = 1.4682
# Fiber Sigma = 0.2000
#
#----------------------------------
6101

-111.4000   10840.0000
-110.9000   10840.0000
-110.4000   10840.0000
-109.9000   10840.0000
-109.4000   10840.0000
-108.9000   10840.0000
-108.4000   10840.0000
-107.9000   10840.0000
-107.4000   10840.0000
-106.9000   10840.0000
-106.4000   10840.0000
-105.9000   10840.0000
-105.4000   10840.0000
-104.9000   10840.0000
-104.4000   10840.0000
-103.9000   10840.0000
-103.4000   10840.0000
-102.9000   10840.0000
-102.4000   10840.0000
-101.9000   10840.0000
-101.4000   10840.0000
-100.9000   10840.0000
-100.4000   10840.0000
-99.9000   10840.0000
-99.4000   10840.0000
-98.9000   10840.0000
-98.4000   10840.0000
-97.9000   10840.0000
-97.4000   10840.0000
-96.9000   10840.0000
-96.4000   10840.0000
-95.9000   10840.0000
-95.4000   10840.0000
-94.9000   10840.0000
-94.4000   10840.0000
-93.9000   10840.0000
-93.4000   10840.0000
-92.9000   10840.0000
-92.4000   10840.0000
-91.9000   10840.0000
-91.4000   10840.0000
-90.9000   10840.0000
-90.4000   10840.0000
-89.9000   10840.0000
-89.4000   10840.0000
-88.9000   10840.0000
-88.4000   10840.0000
-87.9000   10840.0000
-87.4000   10840.0000
-86.9000   10840.0000
-86.4000   10840.0000
-85.9000   10840.0000
-85.4000   10840.0000
-84.9000   10840.0000
-84.4000   10840.0000
-83.9000   10840.0000
-83.4000   10840.0000
-82.9000   10840.0000
-82.4000   10840.0000
-81.9000   10840.0000
-81.4000   10840.0000
-80.9000   10840.0000
-80.4000   10840.0000
-79.9000   10840.0000
-79.4000   10840.0000
-78.9000   10840.0000
-78.4000   10840.0000
-77.9000   10840.0000
-77.4000   10840.0000
-76.9000   10840.0000
-76.4000   10840.0000
-75.9000   10840.0000
-75.4000   10840.0000
-74.9000   10840.0000
-74.4000   10840.0000
-73.9000   10840.0000
-73.4000   10840.0000
-72.9000   10840.0000
-72.4000   10840.0000
-71.9000   10840.0000
-71.4000   10840.0000
-70.9000   10840.0000
-70.4000   10840.0000
-69.9000   10840.0000
-69.4000   10840.0000
-68.9000   10840.0000
-68.4000   10840.0000
-67.9000   10840.0000
-67.4000   10840.0000
-66.9000   10840.0000
-66.4000   10840.0000
-65.9000   10840.0000
-65.4000   10840.0000
-64.9000   10840.0000
-64.4000   10840.0000
-63.9000   10840.0000
-63.4000   10840.0000
-62.9000   10840.0000
-62.4000   10840.0000
-61.9000   10840.0000
-61.4000   10840.0000
-60.9000   10840.0000
-60.4000   10840.0000
-59.9000   10840.0000
-59.4000   10840.0000
-58.9000   10840.0000
-58.4000   10840.0000
-57.9000   10840.0000
-57.4000   10840.0000
-56.9000   10840.0000
-56.4000   10840.0000
-55.9000   10840.0000
-55.4000   10840.0000
-54.9000   10840.0000
-54.4000   10840.0000
-53.9000   10840.0000
-53.4000   10840.0000
-52.9000   10840.0000
-52.4000   10840.0000
-51.9000   10840.0000
-51.4000   10840.0000
-50.9000   10840.0000
-50.4000   10840.0000
-49.9000   10840.0000
-49.4000   10840.0000
-48.9000   10840.0000
-48.4000   10840.0000
-47.9000   10840.0000
-47.4000   10840.0000
-46.9000   10840.0000
-46.4000   10840.0000
-45.9000   10840.0000
-45.4000   10840.0000
-44.9000   10840.0000
-44.4000   10840.0000
-43.9000   10840.0000
-43.4000   10840.0000
-42.9000   10840.0000
-42.4000   10840.0000
-41.9000   10840.0000
-41.4000   10840.0000
-40.9000   10840.0000
-40.4000   10840.0000
-39.9000   10840.0000
-39.4000   10840.0000
-38.9000   10840.0000
-38.4000   10840.0000
-37.9000   10840.0000
-37.4000   10840.0000
-36.9000   10840.0000
-36.4000   10840.0000
-35.9000   10840.0000
-35.4000   10840.0000
-34.9000   10840.0000
-34.4000   10840.0000
-33.9000   10840.0000
-33.4000   10840.0000
-32.9000   10840.0000
-32.4000   10840.0000
-31.9000   10840.0000
-31.4000   10840.0000
-30.9000   10840.0000
-30.4000   10840.0000
-29.9000   10840.0000
-29.4000   10840.0000
-28.9000   10840.0000
-28.4000   10840.0000
-27.9000   10840.0000
-27.4000   10840.0000
-26.9000   10840.0000
-26.4000   10840.0000
-25.9000   10840.0000
-25.4000   10840.0000
-24.9000   10840.0000
-24.4000   10840.0000
-23.9000   10840.0000
-23.4000   10840.0000
-22.9000   10840.0000
-22.4000   10840.0000
-21.9000   10840.0000
-21.4000   10840.0000
-20.9000   10840.0000
-20.4000   10840.0000
-19.9000   10840.0000
-19.4000   10840.0000
-18.9000   10840.0000
-18.4000   10840.0000
-17.9000   10840.0000
-17.4000   10840.0000
-16.9000   10840.0000
-16.4000   10840.0000
-15.9000   10840.0000
-15.4000   10840.0000
-14.9000   10840.0000
-14.4000   10840.0000
-13.9000   10840.0000
-13.4000   10840.0000
-12.9000   10840.0000
-12.4000   10840.0000
-11.9000   10840.0000
-11.4000   10840.0000
-10.9000   10840.0000
-10.4000   10840.0000
-9.9000   10840.0000
-9.4000   10840.0000
-8.9000   10840.0000
-8.4000   10840.0000
-7.9000   10840.0000
-7.4000   10840.0000
-6.9000   10840.0000
-6.4000   10840.0000
-5.9000   10840.0000
-5.4000   10840.0000
-4.9000   10840.0000
-4.4000   10840.0000
-3.9000   10840.0000
-3.4000   10840.0000
-2.9000   10840.0000
-2.4000   10840.0000
-1.9000   10840.0000
-1.4000   10818.6535
-0.9000   10811.1933
-0.4000   10814.3396
0.1000   10816.6206
0.6100   10816.5485
1.1200   10813.5468
1.6300   10815.9395
2.1400   10814.3968
2.6500   10811.8648
3.1600   10807.9810
3.6700   10784.3175
4.1800   10764.2131
4.6900   10770.4807
5.2000   10814.3606
5.7200   10828.8600
6.2300   10830.7796
6.7400   10836.1969
7.2500   10832.7960
7.7600   10831.6276
8.2700   10830.6428
8.7800   10834.0615
9.2900   10835.3934
9.8000   10834.9764
10.3100   10834.9515
10.8200   10840.9124
11.3300   10834.8134
11.8400   10832.5236
12.3500   10832.9908
12.8600   10835.7282
13.3700   10835.4220
13.8800   10835.9750
14.3900   10835.2691
14.9000   10838.4567
15.4100   10835.5037
15.9200   10836.5853
16.4400   10840.3531
16.9500   10840.7132
17.4600   10840.1079
17.9700   10841.8467
18.4800   10841.5429
18.9900   10840.9793
19.5000   10838.8673
20.0100   10842.2368
20.5200   10845.3586
21.0300   10845.1714
21.5400   10842.0659
22.0500   10843.8604
22.5600   10836.8876
23.0700   10838.4358
23.5800   10839.0790
24.0900   10841.5241
24.6000   10837.2340
25.1100   10838.2556
25.6200   10833.9158
26.1300   10837.2895
26.6400   10838.4507
27.1600   10841.7123
27.6700   10838.9896
28.1800   10840.9159
28.6900   10839.5894
29.2000   10840.0397
29.7100   10838.6254
30.2200   10837.5525
30.7300   10836.6234
31.2400   10837.9162
31.7500   10841.7376
32.2600   10842.5577
32.7700   10840.6161
33.2800   10841.3885
33.7900   10837.5906
34.3000   10840.2564
34.8100   10841.5448
35.3200   10838.5408
35.8300   10838.9448
36.3400   10839.3258
36.8500   10839.0888
37.3600   10840.3695
37.8800   10839.0792
38.3900   10840.5927
38.9000   10842.1212
39.4100   10845.4561
39.9200   10844.4740
40.4300   10842.2057
40.9400   10843.5468
41.4500   10846.4361
41.9600   10843.7302
42.4700   10841.3297
42.9800   10842.2433
43.4900   10845.1721
44.0000   10843.4638
44.5100   10836.6986
45.0200   10835.9357
45.5300   10839.2298
46.0400   10839.9942
46.5500   10841.0305
47.0600   10842.1844
47.5700   10843.9506
48.0800   10841.0173
48.6000   10841.0870
49.1100   10839.5145
49.6200   10843.7496
50.1300   10844.0391
50.6400   10844.1241
51.1500   10838.9967
51.6600   10840.4208
52.1700   10841.4042
52.6800   10842.1588
53.1900   10842.0013
53.7000   10841.2404
54.2100   10843.2496
54.7200   10840.4752
55.2300   10840.6837
55.7400   10840.4611
56.2500   10841.6827
56.7600   10839.9122
57.2700   10839.6472
57.7800   10846.2211
58.2900   10839.6924
58.8000   10837.2952
59.3200   10839.7334
59.8300   10837.9137
60.3400   10838.1218
60.8500   10840.9362
61.3600   10839.5570
61.8700   10838.8832
62.3800   10839.1855
62.8900   10840.7153
63.4000   10837.5989
63.9100   10839.3473
64.4200   10841.7293
64.9300   10842.9357
65.4400   10844.8485
65.9500   10844.8939
66.4600   10843.7051
66.9700   10844.7369
67.4800   10843.3457
67.9900   10841.1859
68.5000   10839.1194
69.0100   10839.2461
69.5200   10839.6085
70.0400   10840.7929
70.5500   10837.7041
71.0600   10837.7489
71.5700   10839.8465
72.0800   10839.8710
72.5900   10842.5850
73.1000   10842.1958
73.6100   10840.2087
74.1200   10839.8822
74.6300   10838.6961
75.1400   10843.6632
75.6500   10841.5721
76.1600   10839.0402
76.6700   10838.2824
77.1800   10839.4225
77.6900   10838.3410
78.2000   10838.1003
78.7100   10840.0047
79.2200   10839.7662
79.7300   10841.3397
80.2400   10840.9755
80.7600   10837.7010
81.2700   10836.2911
81.7800   10837.3127
82.2900   10838.8417
82.8000   10840.3321
83.3100   10839.5386
83.8200   10838.5579
84.3300   10840.1798
84.8400   10839.2852
85.3500   10840.2614
85.8600   10841.7775
86.3700   10838.2361
86.8800   10805.3784
87.3900   10760.8658
87.9000   10758.1024
88.4100   10755.1245
88.9200   10758.2243
89.4300   10758.2193
89.9400   10756.5611
90.4500   10750.0000
90.9600   10690.0000
91.4800   10695.0000
91.9900   10705.0000
92.5000   10794.3606
93.0100   10810.1537
93.5200   10817.6365
94.0300   10820.4877
94.5400   10821.7006
95.0500   10823.2998
95.5600   10821.7180
96.0700   10825.2051
96.5800   10822.2175
97.0900   10823.3045
97.6000   10823.1609
98.1100   10820.4829
98.6200   10819.8797
99.1300   10815.5458
99.6400   10816.8586
100.1500   10815.4159
100.6600   10815.1414
101.1700   10819.0676
101.6800   10820.5985
102.2000   10820.1263
102.7100   10821.6580
103.2200   10818.2803
103.7300   10816.1538
104.2400   10823.1828
104.7500   10821.8911
105.2600   10819.9389
105.7700   10822.0575
106.2800   10816.3883
106.7900   10824.9566
107.3000   10823.2244
107.8100   10819.7684
108.3200   10820.3774
108.8300   10815.7281
109.3400   10814.8998
109.8500   10820.5941
110.3600   10816.6729
110.8700   10821.3005
111.3800   10816.7401
111.8900   10822.2970
112.4000   10824.9360
112.9200   10820.2893
113.4300   10820.8496
113.9400   10824.7918
114.4500   10822.8029
114.9600   10823.1636
115.4700   10817.0332
115.9800   10818.5759
116.4900   10817.5478
117.0000   10818.1246
117.5100   10816.2682
118.0200   10820.4051
118.5300   10820.8051
119.0400   10823.7311
119.5500   10822.2233
120.0600   10823.9306
120.5700   10824.3594
121.0800   10824.3554
121.5900   10823.6110
122.1000   10824.4885
122.6100   10822.4252
123.1200   10820.7764
123.6400   10824.5414
124.1500   10822.1564
124.6600   10820.1124
125.1700   10818.3909
125.6800   10820.1039
126.1900   10821.5211
126.7000   10823.4144
127.2100   10825.2739
127.7200   10827.8155
128.2300   10830.0437
128.7400   10828.1619
129.2500   10828.2628
129.7600   10830.6488
130.2700   10831.0262
130.7800   10827.2891
131.2900   10826.2873
131.8000   10822.0314
132.3100   10825.5693
132.8200   10824.7991
133.3300   10824.8367
133.8400   10828.4665
134.3600   10826.4420
134.8700   10824.6418
135.3800   10827.3990
135.8900   10825.9794
136.4000   10828.8776
136.9100   10829.1574
137.4200   10825.9051
137.9300   10823.9625
138.4400   10825.3857
138.9500   10822.1475
139.4600   10828.6704
139.9700   10829.7648
140.4800   10826.6150
140.9900   10823.1035
141.5000   10821.6926
142.0100   10826.1342
142.5200   10824.7157
143.0300   10824.4893
143.5400   10824.2973
144.0500   10824.7950
144.5600   10828.8151
145.0800   10826.6376
145.5900   10827.5326
146.1000   10824.5354
146.6100   10831.9715
147.1200   10832.9442
147.6300   10830.1056
148.1400   10827.9639
148.6500   10827.7581
149.1600   10826.2547
149.6700   10828.2626
150.1800   10831.1580
150.6900   10831.5682
151.2000   10829.3472
151.7100   10824.7256
152.2200   10825.1633
152.7300   10820.7023
153.2400   10825.1386
153.7500   10824.0373
154.2600   10822.9280
154.7700   10820.5171
155.2800   10823.3177
155.8000   10826.4582
156.3100   10825.0729
156.8200   10825.9067
157.3300   10823.4313
157.8400   10824.4499
158.3500   10827.9357
158.8600   10830.8221
159.3700   10829.2944
159.8800   10824.3045
160.3900   10825.5107
160.9000   10825.5916
161.4100   10819.6075
161.9200   10824.6927
162.4300   10825.1182
162.9400   10824.9119
163.4500   10824.6230
163.9600   10825.7216
164.4700   10824.9109
164.9800   10819.7637
165.4900   10822.5938
166.0000   10819.4870
166.5200   10822.9117
167.0300   10830.6573
167.5400   10824.2350
168.0500   10816.5469
168.5600   10817.2902
169.0700   10821.2054
169.5800   10821.6887
170.0900   10820.3252
170.6000   10816.5035
171.1100   10827.2179
171.6200   10827.4880
172.1300   10820.4392
172.6400   10822.9629
173.1500   10824.8376
173.6600   10823.0924
174.1700   10829.1520
174.6800   10829.9629
175.1900   10823.9703
175.7000   10824.6994
176.2100   10832.7460
176.7200   10828.5620
177.2400   10826.9989
177.7500   10829.0960
178.2600   10827.3478
178.7700   10825.7752
179.2800   10820.0615
179.7900   10819.9556
180.3000   10819.3253
180.8100   10821.7381
181.3200   10821.8684
181.8300   10819.9352
182.3400   10824.7849
182.8500   10824.2581
183.3600   10820.8495
183.8700   10823.3228
184.3800   10825.3740
184.8900   10823.4792
185.4000   10824.9453
185.9100   10823.5237
186.4200   10822.4456
186.9300   10824.8257
187.4400   10829.6200
187.9600   10829.9039
188.4700   10820.1116
188.9800   10819.1151
189.4900   10824.1073
190.0000   10820.9218
190.5100   10820.6094
191.0200   10827.1983
191.5300   10824.3531
192.0400   10823.0776
192.5500   10824.5128
193.0600   10828.1387
193.5700   10825.7186
194.0800   10827.2319
194.5900   10829.4460
195.1000   10827.0987
195.6100   10827.9125
196.1200   10827.0472
196.6300   10828.7923
197.1400   10826.1080
197.6500   10820.9395
198.1600   10819.2010
198.6800   10824.6161
199.1900   10827.6111
199.7000   10823.7967
200.2100   10827.3102
200.7200   10829.3969
201.2300   10828.5135
201.7400   10829.0829
202.2500   10826.2765
202.7600   10821.5169
203.2700   10828.2115
203.7800   10830.7096
204.2900   10826.9003
204.8000   10822.1377
205.3100   10822.8160
205.8200   10824.4434
206.3300   10825.2776
206.8400   10825.8475
207.3500   10824.6482
207.8600   10822.7872
208.3700   10826.3968
208.8800   10827.7981
209.4000   10825.1345
209.9100   10822.2489
210.4200   10825.6789
210.9300   10827.6237
211.4400   10828.5889
211.9500   10822.5073
212.4600   10821.4402
212.9700   10824.7415
213.4800   10823.8771
213.9900   10819.4164
214.5000   10821.1409
215.0100   10820.0274
215.5200   10823.2781
216.0300   10824.5746
216.5400   10825.6184
217.0500   10825.6194
217.5600   10826.4971
218.0700   10829.0387
218.5800   10826.1057
219.0900   10824.1574
219.6000   10820.7688
220.1200   10823.1869
220.6300   10826.8021
221.1400   10824.2156
221.6500   10822.7826
222.1600   10823.6478
222.6700   10822.5003
223.1800   10826.1939
223.6900   10826.5251
224.2000   10821.4802
224.7100   10821.7776
225.2200   10824.0181
225.7300   10823.0386
226.2400   10827.4525
226.7500   10827.5637
227.2600   10826.9155
227.7700   10824.6265
228.2800   10826.0515
228.7900   10826.6992
229.3000   10828.5571
229.8100   10825.3431
230.3200   10822.9087
230.8400   10824.3662
231.3500   10825.0072
231.8600   10830.4016
232.3700   10826.6173
232.8800   10826.2961
233.3900   10827.9318
233.9000   10825.4248
234.4100   10828.6573
234.9200   10826.5279
235.4300   10822.6353
235.9400   10823.1337
236.4500   10822.8845
236.9600   10827.8945
237.4700   10827.5394
237.9800   10828.3806
238.4900   10828.1982
239.0000   10828.1518
239.5100   10827.5422
240.0200   10823.2125
240.5300   10827.0252
241.0400   10825.9154
241.5600   10820.7988
242.0700   10825.0506
242.5800   10821.4752
243.0900   10822.5290
243.6000   10822.6635
244.1100   10824.6434
244.6200   10822.4866
245.1300   10821.8226
245.6400   10821.7235
246.1500   10825.0966
246.6600   10829.6488
247.1700   10828.0373
247.6800   10831.9696
248.1900   10825.4522
248.7000   10822.7845
249.2100   10826.8230
249.7200   10825.3794
250.2300   10819.3588
250.7400   10824.8001
251.2500   10827.8987
251.7600   10830.6304
252.2800   10825.9413
252.7900   10824.5103
253.3000   10828.1818
253.8100   10828.4101
254.3200   10823.3811
254.8300   10825.6206
255.3400   10823.3608
255.8500   10825.1208
256.3600   10825.4466
256.8700   10828.1995
257.3800   10824.2798
257.8900   10827.9113
258.4000   10828.3178
258.9100   10823.8704
259.4200   10826.4392
259.9300   10828.7507
260.4400   10827.0086
260.9500   10826.5946
261.4600   10820.3222
261.9700   10821.7822
262.4800   10820.5780
263.0000   10826.9229
263.5100   10827.5263
264.0200   10832.5761
264.5300   10828.8498
265.0400   10825.3013
265.5500   10827.3192
266.0600   10825.2178
266.5700   10822.8175
267.0800   10819.1850
267.5900   10822.3531
268.1000   10827.4026
268.6100   10822.8830
269.1200   10824.9806
269.6300   10822.8928
270.1400   10822.7913
270.6500   10822.2173
271.1600   10824.7472
271.6700   10822.1309
272.1800   10827.2584
272.6900   10826.9197
273.2000   10826.2786
273.7200   10825.5097
274.2300   10824.7992
274.7400   10824.8341
275.2500   10829.5214
275.7600   10825.7357
276.2700   10824.7795
276.7800   10823.5025
277.2900   10825.4760
277.8000   10819.9431
278.3100   10822.5891
278.8200   10822.6678
279.3300   10821.8945
279.8400   10830.2549
280.3500   10827.9547
280.8600   10825.1990
281.3700   10827.0932
281.8800   10825.5438
282.3900   10820.5547
282.9000   10817.8506
283.4100   10816.6490
283.9200   10816.7129
284.4400   10816.2464
284.9500   10818.1918
285.4600   10817.9755
285.9700   10821.5646
286.4800   10865.0000
286.9900   10824.2706
287.5000   10824.3115
288.0100   10822.6893
288.5200   10815.0050
289.0300   10820.6669
289.5400   10825.7900
290.0500   10822.0602
290.5600   10827.0876
291.0700   10827.5654
291.5800   10826.8326
292.0900   10825.4015
292.6000   10825.1036
293.1100   10822.2598
293.6200   10824.2570
294.1300   10827.4809
294.6400   10829.7458
295.1600   10826.3232
295.6700   10824.0468
296.1800   10821.0936
296.6900   10821.6672
297.2000   10825.9281
297.7100   10826.4841
298.2200   10826.0259
298.7300   10828.6587
299.2400   10824.9301
299.7500   10825.8111
300.2600   10829.0344
300.7700   10824.1012
301.2800   10825.3879
301.7900   10821.6411
302.3000   10822.0246
302.8100   10826.6596
303.3200   10825.2800
303.8300   10823.7626
304.3400   10824.1376
304.8500   10824.3339
305.3600   10826.5111
305.8800   10831.3723
306.3900   10827.1536
306.9000   10825.4834
307.4100   10825.6308
307.9200   10826.5687
308.4300   10821.3174
308.9400   10825.4927
309.4500   10828.1241
309.9600   10826.9666
310.4700   10824.2691
310.9800   10821.1947
311.4900   10825.2823
312.0000   10823.3272
312.5100   10823.2554
