#----------------------------------
# BOTDR
# DSTS: v.07.1
# Fri Oct 22 14:44:21 2021
#
# Channel No  = 0
# Partial   = 0
# Partial Start  = 0.00
# Partial End  = 4118.55
# Fibre Length    [m]   = 4118.55  0.00
# Fiber Delay    [m]   = 118.55
# Connection Point    [m]   = 198.64
# Rpt.period      [us]  = 65
# Pulse width     [ns]  = 40
# Frequency Start [MHz] = 10690.00
# Frequency End:  [MHz] = 10990.00
# Frequency Step: [MHz] = 5.00
# No.Averages:    [-]   = 12000
# Sampling Rate   [-]   = 0 (200.00MSs, spatial step = 0.50m)
# Input Range     [-]   = 2 (1V)
# Pulse Delay     [m]   = 100
# Post Pulse Data [m]   = 0
# Fiber Type      [-]   = CH4 Land
# Fiber  temperature [C] = 27.00
# Fiber  Bril Frequency  [MHz] = 10840.00
# Fiber  Strain Coefficient  [ue/MHz] = 18.9150
# Fiber Temperature Coefficient [C/MHz] = 0.9765
# Fiber Refractive Index = 1.4682
# Fiber Sigma = 0.2000
#
#----------------------------------
8074

-118.5500   10840.0000
-118.0500   10840.0000
-117.5500   10840.0000
-117.0500   10840.0000
-116.5500   10840.0000
-116.0500   10840.0000
-115.5500   10840.0000
-115.0500   10840.0000
-114.5500   10840.0000
-114.0500   10840.0000
-113.5500   10840.0000
-113.0500   10840.0000
-112.5500   10840.0000
-112.0500   10840.0000
-111.5500   10840.0000
-111.0500   10840.0000
-110.5500   10840.0000
-110.0500   10840.0000
-109.5500   10840.0000
-109.0500   10840.0000
-108.5500   10840.0000
-108.0500   10840.0000
-107.5500   10840.0000
-107.0500   10840.0000
-106.5500   10840.0000
-106.0500   10840.0000
-105.5500   10840.0000
-105.0500   10840.0000
-104.5500   10840.0000
-104.0500   10840.0000
-103.5500   10840.0000
-103.0500   10840.0000
-102.5500   10840.0000
-102.0500   10840.0000
-101.5500   10840.0000
-101.0500   10840.0000
-100.5500   10840.0000
-100.0500   10840.0000
-99.5500   10840.0000
-99.0500   10840.0000
-98.5500   10840.0000
-98.0500   10840.0000
-97.5500   10840.0000
-97.0500   10840.0000
-96.5500   10840.0000
-96.0500   10840.0000
-95.5500   10840.0000
-95.0500   10840.0000
-94.5500   10840.0000
-94.0500   10840.0000
-93.5500   10840.0000
-93.0500   10840.0000
-92.5500   10840.0000
-92.0500   10840.0000
-91.5500   10840.0000
-91.0500   10840.0000
-90.5500   10840.0000
-90.0500   10840.0000
-89.5500   10840.0000
-89.0500   10840.0000
-88.5500   10840.0000
-88.0500   10840.0000
-87.5500   10840.0000
-87.0500   10840.0000
-86.5500   10840.0000
-86.0500   10840.0000
-85.5500   10840.0000
-85.0500   10840.0000
-84.5500   10840.0000
-84.0500   10840.0000
-83.5500   10840.0000
-83.0500   10840.0000
-82.5500   10840.0000
-82.0500   10840.0000
-81.5500   10840.0000
-81.0500   10840.0000
-80.5500   10840.0000
-80.0500   10840.0000
-79.5500   10840.0000
-79.0500   10840.0000
-78.5500   10840.0000
-78.0500   10840.0000
-77.5500   10840.0000
-77.0500   10840.0000
-76.5500   10840.0000
-76.0500   10840.0000
-75.5500   10840.0000
-75.0500   10840.0000
-74.5500   10840.0000
-74.0500   10840.0000
-73.5500   10840.0000
-73.0500   10840.0000
-72.5500   10840.0000
-72.0500   10840.0000
-71.5500   10840.0000
-71.0500   10840.0000
-70.5500   10840.0000
-70.0500   10840.0000
-69.5500   10840.0000
-69.0500   10840.0000
-68.5500   10840.0000
-68.0500   10840.0000
-67.5500   10840.0000
-67.0500   10840.0000
-66.5500   10840.0000
-66.0500   10840.0000
-65.5500   10840.0000
-65.0500   10840.0000
-64.5500   10840.0000
-64.0500   10840.0000
-63.5500   10840.0000
-63.0500   10840.0000
-62.5500   10840.0000
-62.0500   10840.0000
-61.5500   10840.0000
-61.0500   10840.0000
-60.5500   10840.0000
-60.0500   10840.0000
-59.5500   10840.0000
-59.0500   10840.0000
-58.5500   10840.0000
-58.0500   10840.0000
-57.5500   10840.0000
-57.0500   10840.0000
-56.5500   10840.0000
-56.0500   10840.0000
-55.5500   10840.0000
-55.0500   10840.0000
-54.5500   10840.0000
-54.0500   10840.0000
-53.5500   10840.0000
-53.0500   10840.0000
-52.5500   10840.0000
-52.0500   10840.0000
-51.5500   10840.0000
-51.0500   10840.0000
-50.5500   10840.0000
-50.0500   10840.0000
-49.5500   10840.0000
-49.0500   10840.0000
-48.5500   10840.0000
-48.0500   10840.0000
-47.5500   10840.0000
-47.0500   10840.0000
-46.5500   10840.0000
-46.0500   10840.0000
-45.5500   10840.0000
-45.0500   10840.0000
-44.5500   10840.0000
-44.0500   10840.0000
-43.5500   10840.0000
-43.0500   10840.0000
-42.5500   10840.0000
-42.0500   10840.0000
-41.5500   10840.0000
-41.0500   10840.0000
-40.5500   10840.0000
-40.0500   10840.0000
-39.5500   10840.0000
-39.0500   10840.0000
-38.5500   10840.0000
-38.0500   10840.0000
-37.5500   10840.0000
-37.0500   10840.0000
-36.5500   10840.0000
-36.0500   10840.0000
-35.5500   10840.0000
-35.0500   10840.0000
-34.5500   10840.0000
-34.0500   10840.0000
-33.5500   10840.0000
-33.0500   10840.0000
-32.5500   10840.0000
-32.0500   10840.0000
-31.5500   10840.0000
-31.0500   10840.0000
-30.5500   10840.0000
-30.0500   10840.0000
-29.5500   10840.0000
-29.0500   10840.0000
-28.5500   10840.0000
-28.0500   10840.0000
-27.5500   10840.0000
-27.0500   10840.0000
-26.5500   10840.0000
-26.0500   10840.0000
-25.5500   10840.0000
-25.0500   10840.0000
-24.5500   10840.0000
-24.0500   10840.0000
-23.5500   10840.0000
-23.0500   10840.0000
-22.5500   10840.0000
-22.0500   10840.0000
-21.5500   10840.0000
-21.0500   10840.0000
-20.5500   10840.0000
-20.0500   10840.0000
-19.5500   10840.0000
-19.0500   10840.0000
-18.5500   10840.0000
-18.0500   10840.0000
-17.5500   10840.0000
-17.0500   10840.0000
-16.5500   10840.0000
-16.0500   10840.0000
-15.5500   10840.0000
-15.0500   10840.0000
-14.5500   10840.0000
-14.0500   10840.0000
-13.5500   10840.0000
-13.0500   10840.0000
-12.5500   10840.0000
-12.0500   10840.0000
-11.5500   10840.0000
-11.0500   10840.0000
-10.5500   10840.0000
-10.0500   10840.0000
-9.5500   10840.0000
-9.0500   10840.0000
-8.5500   10840.0000
-8.0500   10840.0000
-7.5500   10840.0000
-7.0500   10840.0000
-6.5500   10840.0000
-6.0500   10840.0000
-5.5500   10840.0000
-5.0500   10840.0000
-4.5500   10840.0000
-4.0500   10840.0000
-3.5500   10840.0000
-3.0500   10840.0000
-2.5500   10840.0000
-2.0500   10840.0000
-1.5500   10840.0000
-1.0500   10811.3864
-0.5500   10811.0126
-0.0500   10810.7118
0.4600   10810.2591
0.9700   10809.8517
1.4800   10809.2439
1.9900   10808.7742
2.5000   10808.2864
3.0100   10808.2529
3.5200   10808.9144
4.0300   10810.7948
4.5400   10814.8674
5.0500   10819.7817
5.5700   10824.9181
6.0800   10827.7589
6.5900   10829.5912
7.1000   10830.2215
7.6100   10830.6314
8.1200   10830.6626
8.6300   10830.7959
9.1400   10830.8074
9.6500   10831.1121
10.1600   10831.3367
10.6700   10831.8473
11.1800   10832.2413
11.6900   10832.9171
12.2000   10833.4308
12.7100   10834.3313
13.2200   10834.9513
13.7300   10835.8727
14.2400   10836.4404
14.7500   10837.0809
15.2600   10837.3435
15.7700   10837.6179
16.2900   10837.6095
16.8000   10837.6555
17.3100   10837.6052
17.8200   10837.6717
18.3300   10837.7387
18.8400   10837.7935
19.3500   10837.8170
19.8600   10837.8017
20.3700   10837.7226
20.8800   10837.6219
21.3900   10837.4869
21.9000   10837.3827
22.4100   10837.2290
22.9200   10837.1850
23.4300   10837.0698
23.9400   10836.9646
24.4500   10836.8786
24.9600   10836.7557
25.4700   10836.7000
25.9800   10836.6575
26.4900   10836.6184
27.0100   10836.6434
27.5200   10836.6603
28.0300   10836.6691
28.5400   10836.7256
29.0500   10836.8312
29.5600   10836.9622
30.0700   10837.1442
30.5800   10837.2944
31.0900   10837.4753
31.6000   10837.6137
32.1100   10837.7908
32.6200   10837.9395
33.1300   10838.1123
33.6400   10838.2112
34.1500   10838.3273
34.6600   10838.3596
35.1700   10838.3698
35.6800   10838.3422
36.1900   10838.3793
36.7000   10838.4583
37.2100   10838.6560
37.7300   10838.8889
38.2400   10839.1867
38.7500   10839.4015
39.2600   10839.6106
39.7700   10839.7323
40.2800   10839.7500
40.7900   10839.7430
41.3000   10839.7354
41.8100   10839.7118
42.3200   10839.6872
42.8300   10839.7167
43.3400   10839.7323
43.8500   10839.7745
44.3600   10839.7972
44.8700   10839.7959
45.3800   10839.7609
45.8900   10839.7096
46.4000   10839.5581
46.9100   10839.4140
47.4200   10839.2250
47.9300   10839.1767
48.4500   10839.1860
48.9600   10839.2694
49.4700   10839.3949
49.9800   10839.4878
50.4900   10839.5040
51.0000   10839.4824
51.5100   10839.3954
52.0200   10839.3621
52.5300   10839.3077
53.0400   10839.3793
53.5500   10839.4498
54.0600   10839.4965
54.5700   10839.5447
55.0800   10839.5293
55.5900   10839.4697
56.1000   10839.4355
56.6100   10839.3088
57.1200   10839.2482
57.6300   10839.1967
58.1400   10839.1650
58.6500   10839.1271
59.1700   10839.1339
59.6800   10839.0747
60.1900   10839.0018
60.7000   10838.8575
61.2100   10838.7327
61.7200   10838.5679
62.2300   10838.4735
62.7400   10838.3844
63.2500   10838.4193
63.7600   10838.4095
64.2700   10838.4900
64.7800   10838.5636
65.2900   10838.6165
65.8000   10838.6180
66.3100   10838.5934
66.8200   10838.5344
67.3300   10838.5376
67.8400   10838.5671
68.3500   10838.5951
68.8600   10838.6971
69.3700   10838.8000
69.8900   10838.9578
70.4000   10839.0380
70.9100   10839.0551
71.4200   10839.1134
71.9300   10839.0633
72.4400   10839.0248
72.9500   10838.9773
73.4600   10838.9975
73.9700   10838.9828
74.4800   10839.0211
74.9900   10839.0467
75.5000   10839.0468
76.0100   10839.0216
76.5200   10838.9444
77.0300   10838.8728
77.5400   10838.8029
78.0500   10838.6517
78.5600   10838.5866
79.0700   10838.3935
79.5800   10838.2335
80.0900   10837.8903
80.6100   10837.6218
81.1200   10837.1763
81.6300   10836.8042
82.1400   10836.2250
82.6500   10835.7860
83.1600   10835.1911
83.6700   10834.6146
84.1800   10833.7513
84.6900   10832.9737
85.2000   10831.2591
85.7100   10828.2172
86.2200   10806.0612
86.7300   10792.8326
87.2400   10768.6086
87.7500   10760.3733
88.2600   10758.7580
88.7700   10757.8809
89.2800   10756.7074
89.7900   10755.4610
90.3000   10752.9375
90.8100   10750.4427
91.3300   10749.0473
91.8400   10758.4603
92.3500   10788.5571
92.8600   10811.8109
93.3700   10813.7623
93.8800   10814.9880
94.3900   10815.8086
94.9000   10816.3222
95.4100   10816.5232
95.9200   10816.6618
96.4300   10816.6820
96.9400   10816.7612
97.4500   10816.8041
97.9600   10816.9205
98.4700   10817.1314
98.9800   10817.3343
99.4900   10817.6124
100.0000   10817.8414
100.5100   10818.1030
101.0200   10818.2843
101.5300   10818.4627
102.0500   10818.5398
102.5600   10818.6537
103.0700   10818.6151
103.5800   10818.5798
104.0900   10818.4977
104.6000   10818.3665
105.1100   10818.2407
105.6200   10818.0525
106.1300   10817.9514
106.6400   10817.8562
107.1500   10817.7707
107.6600   10817.7930
108.1700   10817.8214
108.6800   10817.8312
109.1900   10817.8536
109.7000   10817.8938
110.2100   10817.9349
110.7200   10817.9891
111.2300   10818.0552
111.7400   10818.1647
112.2500   10818.1975
112.7700   10818.1415
113.2800   10818.0664
113.7900   10817.9353
114.3000   10817.8226
114.8100   10817.7792
115.3200   10817.8226
115.8300   10817.9743
116.3400   10818.1260
116.8500   10818.3027
117.3600   10818.4139
117.8700   10818.6072
118.3800   10818.7020
118.8900   10818.8728
119.4000   10818.9910
119.9100   10819.1845
120.4200   10819.2963
120.9300   10819.4800
121.4400   10819.5445
121.9500   10819.6586
122.4600   10819.7079
122.9700   10819.7647
123.4900   10819.7650
124.0000   10819.7619
124.5100   10819.7032
125.0200   10819.7078
125.5300   10819.6531
126.0400   10819.7436
126.5500   10819.7740
127.0600   10819.9117
127.5700   10820.0035
128.0800   10820.2586
128.5900   10820.3696
129.1000   10820.5984
129.6100   10820.7501
130.1200   10820.9733
130.6300   10821.1002
131.1400   10821.3684
131.6500   10821.5142
132.1600   10821.8026
132.6700   10821.9727
133.1800   10822.3099
133.6900   10822.4968
134.2100   10822.7759
134.7200   10822.8205
135.2300   10822.8704
135.7400   10822.7408
136.2500   10822.5894
136.7600   10822.3155
137.2700   10822.1038
137.7800   10821.8276
138.2900   10821.7019
138.8000   10821.4927
139.3100   10821.3463
139.8200   10821.2113
140.3300   10821.1436
140.8400   10821.0157
141.3500   10821.0206
141.8600   10820.9822
142.3700   10821.0981
142.8800   10821.3309
143.3900   10821.7891
143.9000   10822.2861
144.4100   10823.0118
144.9300   10823.5403
145.4400   10824.1329
145.9500   10824.4212
146.4600   10824.6203
146.9700   10824.5628
147.4800   10824.5541
147.9900   10824.3479
148.5000   10824.2565
149.0100   10824.0711
149.5200   10823.9617
150.0300   10823.7674
150.5400   10823.6408
151.0500   10823.3998
151.5600   10823.1719
152.0700   10822.7833
152.5800   10822.3824
153.0900   10821.9475
153.6000   10821.5130
154.1100   10821.2014
154.6200   10821.0030
155.1300   10820.9120
155.6500   10820.9715
156.1600   10820.9215
156.6700   10820.8901
157.1800   10820.7928
157.6900   10820.7596
158.2000   10820.6355
158.7100   10820.5990
159.2200   10820.5144
159.7300   10820.4831
160.2400   10820.4196
160.7500   10820.3632
161.2600   10820.3315
161.7700   10820.4744
162.2800   10820.5248
162.7900   10820.6929
163.3000   10820.7236
163.8100   10820.7716
164.3200   10820.6697
164.8300   10820.5167
165.3400   10820.3558
165.8500   10820.2304
166.3700   10820.0942
166.8800   10820.0176
167.3900   10819.9372
167.9000   10819.9389
168.4100   10819.9425
168.9200   10820.1433
169.4300   10820.3258
169.9400   10820.6522
170.4500   10820.8556
170.9600   10821.1375
171.4700   10821.2513
171.9800   10821.3764
172.4900   10821.4331
173.0000   10821.5356
173.5100   10821.6279
174.0200   10821.8853
174.5300   10821.9677
175.0400   10822.2036
175.5500   10822.3339
176.0600   10822.5831
176.5700   10822.6655
177.0900   10822.8456
177.6000   10822.9185
178.1100   10822.9930
178.6200   10822.8807
179.1300   10822.8457
179.6400   10822.7039
180.1500   10822.7304
180.6600   10822.6724
181.1700   10822.7379
181.6800   10822.7699
182.1900   10822.8694
182.7000   10822.8672
183.2100   10822.8983
183.7200   10822.8668
184.2300   10822.8716
184.7400   10822.7743
185.2500   10822.8177
185.7600   10822.7438
186.2700   10822.7467
186.7800   10822.6529
187.2900   10822.6032
187.8100   10822.5427
188.3200   10822.5145
188.8300   10822.4273
189.3400   10822.4115
189.8500   10822.2711
190.3600   10822.2414
190.8700   10822.1116
191.3800   10822.0467
191.8900   10822.0216
192.4000   10822.1086
192.9100   10822.1012
193.4200   10822.2129
193.9300   10822.2647
194.4400   10822.3290
194.9500   10822.3683
195.4600   10822.4613
195.9700   10822.5335
196.4800   10822.7669
196.9900   10822.8133
197.5000   10822.9631
198.0100   10822.9560
198.5300   10823.0077
199.0400   10822.9520
199.5500   10822.9765
200.0600   10822.8410
200.5700   10822.8614
201.0800   10822.8718
201.5900   10823.0064
202.1000   10823.1145
202.6100   10823.3219
203.1200   10823.3352
203.6300   10823.4552
204.1400   10823.3302
204.6500   10823.2396
205.1600   10823.0209
205.6700   10822.8969
206.1800   10822.7948
206.6900   10822.8017
207.2000   10822.8294
207.7100   10822.9883
208.2200   10823.0885
208.7300   10823.2161
209.2500   10823.2400
209.7600   10823.2814
210.2700   10823.2171
210.7800   10823.2560
211.2900   10823.2389
211.8000   10823.2810
212.3100   10823.2326
212.8200   10823.2692
213.3300   10823.2496
213.8400   10823.2399
214.3500   10823.1673
214.8600   10823.1865
215.3700   10823.1019
215.8800   10823.1300
216.3900   10823.1577
216.9000   10823.3543
217.4100   10823.4785
217.9200   10823.7405
218.4300   10823.8441
218.9400   10824.0046
219.4500   10823.9513
219.9700   10823.9060
220.4800   10823.7716
220.9900   10823.6052
221.5000   10823.4026
222.0100   10823.1949
222.5200   10822.8922
223.0300   10822.6729
223.5400   10822.4272
224.0500   10822.2831
224.5600   10822.1764
225.0700   10822.1701
225.5800   10822.1870
226.0900   10822.2971
226.6000   10822.3918
227.1100   10822.6029
227.6200   10822.6575
228.1300   10822.7846
228.6400   10822.6878
229.1500   10822.5668
229.6600   10822.3409
230.1700   10822.1484
230.6900   10822.0020
231.2000   10821.9696
231.7100   10821.9945
232.2200   10822.0822
232.7300   10822.0846
233.2400   10822.1219
233.7500   10822.0028
234.2600   10822.0053
234.7700   10822.0035
235.2800   10822.0650
235.7900   10822.1191
236.3000   10822.2466
236.8100   10822.2541
237.3200   10822.3880
237.8300   10822.3804
238.3400   10822.5062
238.8500   10822.5864
239.3600   10822.7873
239.8700   10822.8698
240.3800   10823.0060
240.8900   10823.0083
241.4100   10823.0171
241.9200   10822.8849
242.4300   10822.9072
242.9400   10822.7907
243.4500   10822.7907
243.9600   10822.6644
244.4700   10822.5540
244.9800   10822.2612
245.4900   10821.9999
246.0000   10821.6976
246.5100   10821.5088
247.0200   10821.3169
247.5300   10821.2520
248.0400   10821.1847
248.5500   10821.1522
249.0600   10821.1040
249.5700   10821.0897
250.0800   10821.0455
250.5900   10821.0785
251.1000   10821.1466
251.6100   10821.3605
252.1300   10821.5446
252.6400   10821.8796
253.1500   10822.1062
253.6600   10822.3613
254.1700   10822.4030
254.6800   10822.3717
255.1900   10822.2122
255.7000   10822.0195
256.2100   10821.8306
256.7200   10821.7100
257.2300   10821.6617
257.7400   10821.7160
258.2500   10821.7717
258.7600   10821.9025
259.2700   10821.8980
259.7800   10821.9450
260.2900   10821.8770
260.8000   10821.8671
261.3100   10821.8019
261.8200   10821.8510
262.3300   10821.8604
262.8500   10822.0342
263.3600   10822.0864
263.8700   10822.2078
264.3800   10822.2221
264.8900   10822.2804
265.4000   10822.2646
265.9100   10822.3313
266.4200   10822.3098
266.9300   10822.3716
267.4400   10822.3231
267.9500   10822.4345
268.4600   10822.3789
268.9700   10822.4232
269.4800   10822.4046
269.9900   10822.4372
270.5000   10822.3831
271.0100   10822.3642
271.5200   10822.2119
272.0300   10822.1009
272.5400   10821.9731
273.0500   10821.8716
273.5700   10821.8237
274.0800   10821.8296
274.5900   10821.7655
275.1000   10821.7413
275.6100   10821.5950
276.1200   10821.5428
276.6300   10821.3885
277.1400   10821.3348
277.6500   10821.2652
278.1600   10821.2192
278.6700   10821.1568
279.1800   10821.1640
279.6900   10821.1298
280.2000   10821.2206
280.7100   10821.2858
281.2200   10821.4822
281.7300   10821.6447
282.2400   10821.8460
282.7500   10821.9625
283.2600   10822.1514
283.7700   10822.1941
284.2900   10822.2545
284.8000   10822.1575
285.3100   10822.1136
285.8200   10821.9795
286.3300   10821.8748
286.8400   10821.7665
287.3500   10821.7805
287.8600   10821.7177
288.3700   10821.7869
288.8800   10821.7441
289.3900   10821.8026
289.9000   10821.7222
290.4100   10821.6940
290.9200   10821.5249
291.4300   10821.4015
291.9400   10821.2306
292.4500   10821.1131
292.9600   10821.0342
293.4700   10821.1100
293.9800   10821.1992
294.4900   10821.3957
295.0100   10821.5377
295.5200   10821.7433
296.0300   10821.8290
296.5400   10821.9191
297.0500   10821.9565
297.5600   10822.0621
298.0700   10822.0893
298.5800   10822.1436
299.0900   10822.1126
299.6000   10822.1507
300.1100   10822.0454
300.6200   10821.9574
301.1300   10821.7959
301.6400   10821.6938
302.1500   10821.5386
302.6600   10821.4497
303.1700   10821.4010
303.6800   10821.4785
304.1900   10821.4705
304.7000   10821.6245
305.2100   10821.6628
