#----------------------------------
# BOTDR
# DSTS: v.07.1
# Fri Oct 22 13:57:39 2021
#
# Channel No  = 0
# Partial   = 0
# Partial Start  = 0.00
# Partial End  = 5118.55
# Fibre Length    [m]   = 5118.55  0.00
# Fiber Delay    [m]   = 118.55
# Connection Point    [m]   = 198.64
# Rpt.period      [us]  = 65
# Pulse width     [ns]  = 40
# Frequency Start [MHz] = 10690.00
# Frequency End:  [MHz] = 10990.00
# Frequency Step: [MHz] = 5.00
# No.Averages:    [-]   = 12000
# Sampling Rate   [-]   = 2 (50.00MSs, spatial step = 2.00m)
# Input Range     [-]   = 2 (1V)
# Pulse Delay     [m]   = 100
# Post Pulse Data [m]   = 0
# Fiber Type      [-]   = CH4 Land
# Fiber  temperature [C] = 27.00
# Fiber  Bril Frequency  [MHz] = 10840.00
# Fiber  Strain Coefficient  [ue/MHz] = 18.9150
# Fiber Temperature Coefficient [C/MHz] = 0.9765
# Fiber Refractive Index = 1.4682
# Fiber Sigma = 0.2000
#
#----------------------------------
2509

-118.5500   10840.0000
-116.5500   10840.0000
-114.5500   10840.0000
-112.5500   10840.0000
-110.5500   10840.0000
-108.5500   10840.0000
-106.5500   10840.0000
-104.5500   10840.0000
-102.5500   10840.0000
-100.5500   10840.0000
-98.5500   10840.0000
-96.5500   10840.0000
-94.5500   10840.0000
-92.5500   10840.0000
-90.5500   10840.0000
-88.5500   10840.0000
-86.5500   10840.0000
-84.5500   10840.0000
-82.5500   10840.0000
-80.5500   10840.0000
-78.5500   10840.0000
-76.5500   10840.0000
-74.5500   10840.0000
-72.5500   10840.0000
-70.5500   10840.0000
-68.5500   10840.0000
-66.5500   10840.0000
-64.5500   10840.0000
-62.5500   10840.0000
-60.5500   10840.0000
-58.5500   10840.0000
-56.5500   10840.0000
-54.5500   10840.0000
-52.5500   10840.0000
-50.5500   10840.0000
-48.5500   10840.0000
-46.5500   10840.0000
-44.5500   10840.0000
-42.5500   10840.0000
-40.5500   10840.0000
-38.5500   10840.0000
-36.5500   10840.0000
-34.5500   10840.0000
-32.5500   10840.0000
-30.5500   10840.0000
-28.5500   10840.0000
-26.5500   10840.0000
-24.5500   10840.0000
-22.5500   10840.0000
-20.5500   10840.0000
-18.5500   10840.0000
-16.5500   10840.0000
-14.5500   10840.0000
-12.5500   10840.0000
-10.5500   10840.0000
-8.5500   10840.0000
-6.5500   10840.0000
-4.5500   10840.0000
-2.5500   10812.7183
-0.5500   10810.5675
1.4900   10809.6410
3.5300   10818.4441
5.5800   10829.7803
7.6200   10831.4681
9.6600   10832.5315
11.7000   10834.2559
13.7400   10836.1332
15.7900   10836.9594
17.8300   10837.4850
19.8700   10837.6170
21.9100   10837.4018
23.9500   10837.1968
25.9900   10836.4071
28.0400   10836.2016
30.0800   10836.8721
32.1200   10837.3463
34.1600   10837.8728
36.2000   10838.7054
38.2500   10839.6774
40.2900   10839.5149
42.3300   10839.0097
44.3700   10838.4389
46.4100   10838.2328
48.4600   10838.5667
50.5000   10838.9025
52.5400   10838.9833
54.5800   10839.0172
56.6200   10838.6838
58.6700   10838.2558
60.7100   10838.2898
62.7500   10838.3197
64.7900   10838.1925
66.8300   10838.4023
68.8700   10838.4241
70.9200   10838.8544
72.9600   10838.9534
75.0000   10838.7718
77.0400   10838.2537
79.0800   10837.8628
81.1300   10837.4927
83.1700   10836.2033
85.2100   10808.3535
87.2500   10757.6881
89.2900   10755.6944
91.3400   10812.2522
93.3800   10816.8501
95.4200   10817.1143
97.4600   10816.7067
99.5000   10817.2937
101.5500   10818.2371
103.5900   10817.7355
105.6300   10817.3660
107.6700   10817.5591
109.7100   10817.5125
111.7500   10817.1482
113.8000   10817.4454
115.8400   10817.7030
117.8800   10818.1687
119.9200   10818.6269
121.9600   10818.8007
124.0100   10818.5499
126.0500   10819.0507
128.0900   10819.5016
130.1300   10820.0595
132.1700   10820.9778
134.2200   10821.3870
136.2600   10820.9857
138.3000   10820.7654
140.3400   10820.7076
142.3800   10821.2171
144.4300   10823.6764
146.4700   10824.9257
148.5100   10824.7608
150.5500   10823.5627
152.5900   10821.7396
154.6300   10821.0896
156.6800   10821.1988
158.7200   10821.1933
160.7600   10821.0928
162.8000   10821.0438
164.8400   10820.8904
166.8900   10821.4148
168.9300   10823.1256
170.9700   10824.7091
173.0100   10825.7031
175.0500   10826.4386
177.1000   10826.3017
179.1400   10826.5769
181.1800   10826.6695
183.2200   10826.4973
185.2600   10826.6024
187.3100   10826.5661
189.3500   10826.2064
191.3900   10825.8607
193.4300   10826.1387
195.4700   10826.1824
197.5100   10826.2837
199.5600   10826.6524
201.6000   10826.6068
203.6400   10826.6341
205.6800   10826.9769
207.7200   10827.2067
209.7700   10826.9366
211.8100   10826.8957
213.8500   10826.9153
215.8900   10827.4688
217.9300   10827.2662
219.9800   10826.8168
222.0200   10826.0580
224.0600   10825.7512
226.1000   10825.8490
228.1400   10825.1491
230.1900   10824.4826
232.2300   10824.8346
234.2700   10824.8717
236.3100   10824.8552
238.3500   10825.6220
240.3900   10825.6317
242.4400   10825.2757
244.4800   10823.9512
246.5200   10822.2418
248.5600   10821.4634
250.6000   10822.0264
252.6500   10822.6812
254.6900   10823.1665
256.7300   10823.2235
258.7700   10822.8181
260.8100   10822.5909
262.8600   10823.0868
264.9000   10823.7298
266.9400   10823.9400
268.9800   10824.0992
271.0200   10823.8750
273.0700   10823.9316
275.1100   10824.5062
277.1500   10824.3977
279.1900   10824.2871
281.2300   10824.2911
283.2700   10824.9254
285.3200   10825.1810
287.3600   10824.8204
289.4000   10824.3306
291.4400   10824.3323
293.4800   10824.6715
295.5300   10824.4462
297.5700   10824.2795
299.6100   10824.3506
301.6500   10824.3019
303.6900   10825.0661
305.7400   10825.6176
307.7800   10825.7493
309.8200   10825.7163
311.8600   10824.9004
313.9000   10823.8814
315.9500   10823.2577
317.9900   10822.8705
320.0300   10823.3286
322.0700   10823.6888
324.1100   10823.9642
326.1500   10823.9450
328.2000   10824.0967
330.2400   10824.1114
332.2800   10824.1082
334.3200   10824.4245
336.3600   10824.7904
338.4100   10824.7701
340.4500   10824.9002
342.4900   10825.6912
344.5300   10825.4263
346.5700   10825.0461
348.6200   10824.6761
350.6600   10823.7418
352.7000   10823.8748
354.7400   10824.8547
356.7800   10825.7248
358.8300   10826.0156
360.8700   10825.5974
362.9100   10824.9854
364.9500   10824.7443
366.9900   10824.2252
369.0300   10824.3248
371.0800   10824.5685
373.1200   10824.4076
375.1600   10824.3752
377.2000   10824.1486
379.2400   10823.9658
381.2900   10824.1802
383.3300   10824.2530
385.3700   10824.1322
387.4100   10823.9942
389.4500   10824.0253
391.5000   10824.2877
393.5400   10824.5311
395.5800   10824.1831
397.6200   10824.1619
399.6600   10824.2939
401.7100   10824.7950
403.7500   10824.5957
405.7900   10824.5686
407.8300   10824.2657
409.8700   10824.1479
411.9100   10824.2279
413.9600   10824.3925
416.0000   10824.3678
418.0400   10824.7692
420.0800   10824.6562
422.1200   10824.8768
424.1700   10824.8192
426.2100   10824.9592
428.2500   10825.1046
430.2900   10825.0745
432.3300   10824.8318
434.3800   10824.9755
436.4200   10825.0359
438.4600   10824.4647
440.5000   10824.0986
442.5400   10823.8706
444.5900   10823.7845
446.6300   10824.0871
448.6700   10824.1705
450.7100   10823.9124
452.7500   10823.9309
454.7900   10824.0541
456.8400   10823.9344
458.8800   10824.0332
460.9200   10823.8368
462.9600   10823.7592
465.0000   10823.7585
467.0500   10823.7407
469.0900   10823.9653
471.1300   10824.6570
473.1700   10824.8196
475.2100   10824.8737
477.2600   10825.0936
479.3000   10824.5165
481.3400   10823.8059
483.3800   10824.0606
485.4200   10824.4590
487.4700   10824.7600
489.5100   10825.2494
491.5500   10825.4284
493.5900   10825.3298
495.6300   10825.9116
497.6700   10825.9052
499.7200   10825.8348
501.7600   10825.6303
503.8000   10824.7258
505.8400   10824.1787
507.8800   10824.9325
509.9300   10825.8906
511.9700   10826.0822
514.0100   10825.3680
516.0500   10825.4253
518.0900   10825.3140
520.1400   10825.3562
522.1800   10825.2020
524.2200   10824.7313
526.2600   10824.4137
528.3000   10824.1509
530.3500   10823.5297
532.3900   10823.3365
534.4300   10823.3378
536.4700   10822.9774
538.5100   10822.4678
540.5500   10822.0903
542.6000   10821.5602
544.6400   10821.8570
546.6800   10822.1830
548.7200   10822.5331
550.7600   10822.5987
552.8100   10824.4834
554.8500   10832.5989
556.8900   10840.8335
558.9300   10842.3368
560.9700   10841.7880
563.0200   10841.4423
565.0600   10841.0070
567.1000   10840.7610
569.1400   10840.9019
571.1800   10840.8150
573.2300   10840.7961
575.2700   10840.9080
577.3100   10840.9095
579.3500   10842.0348
581.3900   10842.9876
583.4300   10843.1449
585.4800   10843.2665
587.5200   10843.1463
589.5600   10843.3143
591.6000   10843.5337
593.6400   10843.5153
595.6900   10843.5780
597.7300   10843.6703
599.7700   10843.3697
601.8100   10842.9960
603.8500   10843.0122
605.9000   10843.0489
607.9400   10842.9868
609.9800   10843.4488
612.0200   10842.9314
614.0600   10842.5569
616.1100   10843.1649
618.1500   10843.1217
620.1900   10843.4111
622.2300   10843.2757
624.2700   10843.3191
626.3100   10843.2659
628.3600   10842.9584
630.4000   10843.3710
632.4400   10843.8888
634.4800   10844.2828
636.5200   10844.3388
638.5700   10844.3093
640.6100   10844.1900
642.6500   10844.3764
644.6900   10843.9778
646.7300   10843.7156
648.7800   10843.2966
650.8200   10843.2144
652.8600   10843.4979
654.9000   10843.2655
656.9400   10843.2031
658.9900   10842.7823
661.0300   10842.1126
663.0700   10842.3522
665.1100   10843.0552
667.1500   10843.4966
669.1900   10843.6101
671.2400   10843.7982
673.2800   10843.5331
675.3200   10842.5925
677.3600   10841.8965
679.4000   10841.8722
681.4500   10842.1274
683.4900   10842.5186
685.5300   10843.1596
687.5700   10843.7449
689.6100   10844.7004
691.6600   10845.3418
693.7000   10845.2699
695.7400   10844.2224
697.7800   10842.7634
699.8200   10843.2471
701.8700   10845.2934
703.9100   10847.2052
705.9500   10848.9598
707.9900   10850.5809
710.0300   10851.0643
712.0700   10850.9654
714.1200   10850.6169
716.1600   10850.3399
718.2000   10850.5410
720.2400   10850.4874
722.2800   10850.4641
724.3300   10850.2700
726.3700   10849.5942
728.4100   10848.1081
730.4500   10847.4034
732.4900   10848.1555
734.5400   10848.9292
736.5800   10849.1315
738.6200   10849.4511
740.6600   10849.4720
742.7000   10849.7593
744.7500   10849.4095
746.7900   10848.9605
748.8300   10849.0785
750.8700   10849.2052
752.9100   10849.3512
754.9500   10849.1652
757.0000   10848.8267
759.0400   10847.8152
761.0800   10847.4094
763.1200   10847.7174
765.1600   10847.8797
767.2100   10847.6146
769.2500   10847.3987
771.2900   10847.7098
773.3300   10847.5685
775.3700   10847.1909
777.4200   10847.0159
779.4600   10847.6637
781.5000   10848.6682
783.5400   10848.9677
785.5800   10849.1865
787.6300   10849.0264
789.6700   10848.8270
791.7100   10848.4733
793.7500   10848.2390
795.7900   10847.5910
797.8300   10846.4642
799.8800   10845.5544
801.9200   10846.0113
803.9600   10847.1166
806.0000   10847.4256
808.0400   10847.7101
810.0900   10847.5722
812.1300   10847.5872
814.1700   10847.5436
816.2100   10847.8583
818.2500   10848.1404
820.3000   10847.9995
822.3400   10848.6615
824.3800   10848.8736
826.4200   10848.8341
828.4600   10848.8640
830.5100   10848.9156
832.5500   10848.8347
834.5900   10848.7144
836.6300   10848.3948
838.6700   10847.4500
840.7100   10846.1987
842.7600   10845.7033
844.8000   10846.3773
846.8400   10846.8581
848.8800   10846.8186
850.9200   10846.6659
852.9700   10846.3641
855.0100   10846.5168
857.0500   10846.7593
859.0900   10847.0628
861.1300   10846.8903
863.1800   10846.4943
865.2200   10846.5119
867.2600   10846.0423
869.3000   10845.2733
871.3400   10844.8983
873.3900   10845.0083
875.4300   10846.0172
877.4700   10846.2976
879.5100   10845.1092
881.5500   10845.1832
883.5900   10845.7246
885.6400   10845.8453
887.6800   10845.7187
889.7200   10845.6560
891.7600   10845.8120
893.8000   10845.9416
895.8500   10845.5319
897.8900   10845.4499
899.9300   10845.3486
901.9700   10845.1308
904.0100   10845.1033
906.0600   10845.3797
908.1000   10845.0263
910.1400   10844.6727
912.1800   10844.1984
914.2200   10843.3995
916.2700   10843.1578
918.3100   10843.2959
920.3500   10843.5568
922.3900   10843.9256
924.4300   10843.6673
926.4700   10843.4989
928.5200   10843.7351
930.5600   10843.8935
932.6000   10844.0798
934.6400   10844.2076
936.6800   10844.1744
938.7300   10843.8961
940.7700   10844.2877
942.8100   10844.3048
944.8500   10844.0058
946.8900   10844.4548
948.9400   10844.7519
950.9800   10844.8178
953.0200   10844.6198
955.0600   10844.6227
957.1000   10844.1802
959.1500   10844.0958
961.1900   10844.0222
963.2300   10843.0212
965.2700   10842.8905
967.3100   10845.0036
969.3500   10846.9348
971.4000   10847.7527
973.4400   10847.6874
975.4800   10847.3984
977.5200   10846.8332
979.5600   10846.9396
981.6100   10846.7493
983.6500   10846.4831
985.6900   10845.6947
987.7300   10844.5212
989.7700   10844.3423
991.8200   10845.6111
993.8600   10845.5521
995.9000   10844.8163
997.9400   10843.6690
999.9800   10843.2304
1002.0300   10842.5757
1004.0700   10842.0765
1006.1100   10841.8792
1008.1500   10841.6513
1010.1900   10841.1264
1012.2300   10840.8510
1014.2800   10840.9857
1016.3200   10843.1938
1018.3600   10845.0046
1020.4000   10846.2107
1022.4400   10846.4619
1024.4900   10846.6703
1026.5300   10846.5732
1028.5700   10846.7334
1030.6100   10847.0383
1032.6500   10846.9583
1034.7000   10845.7804
1036.7400   10845.0780
1038.7800   10845.9693
1040.8200   10846.6936
1042.8600   10846.7722
1044.9100   10846.8314
1046.9500   10847.0004
1048.9900   10847.1262
1051.0300   10846.7953
1053.0700   10846.2815
1055.1100   10845.4821
1057.1600   10843.3947
1059.2000   10840.7255
1061.2400   10839.6953
1063.2800   10839.5748
1065.3200   10839.7237
1067.3700   10840.0646
1069.4100   10840.9368
1071.4500   10842.2430
1073.4900   10843.5407
1075.5300   10844.7646
1077.5800   10844.9859
1079.6200   10844.2435
1081.6600   10843.1966
1083.7000   10842.6781
1085.7400   10842.8293
1087.7900   10844.1625
1089.8300   10845.3944
1091.8700   10846.1279
1093.9100   10846.3531
1095.9500   10846.1077
1097.9900   10846.5047
1100.0400   10846.8775
1102.0800   10847.2541
1104.1200   10847.2217
1106.1600   10846.2376
1108.2000   10844.7223
1110.2500   10844.3623
1112.2900   10845.8766
1114.3300   10847.1050
1116.3700   10847.3046
1118.4100   10847.1522
1120.4600   10846.8844
1122.5000   10846.9305
1124.5400   10846.0380
1126.5800   10844.4390
1128.6200   10842.3358
1130.6700   10841.2041
1132.7100   10840.7979
1134.7500   10842.9176
1136.7900   10845.9959
1138.8300   10847.2009
1140.8700   10847.4748
1142.9200   10847.7093
1144.9600   10847.8946
1147.0000   10848.0893
1149.0400   10847.9181
1151.0800   10847.8811
1153.1300   10847.2861
1155.1700   10846.2698
1157.2100   10844.9699
1159.2500   10845.2286
1161.2900   10846.8610
1163.3400   10847.0643
1165.3800   10846.7369
1167.4200   10846.1881
1169.4600   10846.4638
1171.5000   10846.5113
1173.5500   10845.9987
1175.5900   10845.3890
1177.6300   10844.8590
1179.6700   10844.1137
1181.7100   10843.8417
1183.7500   10845.1438
1185.8000   10845.8959
1187.8400   10845.3065
1189.8800   10845.0766
1191.9200   10845.8616
1193.9600   10845.9959
1196.0100   10845.7809
1198.0500   10845.8675
1200.0900   10845.3083
1202.1300   10844.4480
1204.1700   10843.5677
1206.2200   10843.1053
1208.2600   10843.8830
1210.3000   10844.6018
1212.3400   10844.7763
1214.3800   10844.3373
1216.4300   10844.1399
1218.4700   10844.4764
1220.5100   10844.5566
1222.5500   10844.2723
1224.5900   10844.1565
1226.6300   10843.7510
1228.6800   10843.1374
1230.7200   10842.9999
1232.7600   10844.2592
1234.8000   10845.2311
1236.8400   10845.0373
1238.8900   10844.7380
1240.9300   10844.3517
1242.9700   10843.6790
1245.0100   10843.7559
1247.0500   10844.1970
1249.1000   10844.3458
1251.1400   10843.3904
1253.1800   10842.1157
1255.2200   10842.2869
1257.2600   10843.2667
1259.3100   10844.2507
1261.3500   10845.0670
1263.3900   10845.4984
1265.4300   10845.3952
1267.4700   10845.1434
1269.5100   10845.0120
1271.5600   10844.6351
1273.6000   10844.0449
1275.6400   10843.1180
1277.6800   10841.9605
1279.7200   10841.7629
1281.7700   10842.5592
1283.8100   10843.4303
1285.8500   10844.5759
1287.8900   10845.4422
1289.9300   10845.0889
1291.9800   10844.5093
1294.0200   10844.2024
1296.0600   10844.5278
1298.1000   10844.2434
1300.1400   10843.2315
1302.1900   10841.9781
1304.2300   10841.8442
1306.2700   10842.6725
1308.3100   10843.8474
1310.3500   10844.4373
1312.3900   10844.5995
1314.4400   10844.7031
1316.4800   10844.8704
1318.5200   10845.0196
1320.5600   10844.8564
1322.6000   10843.6801
1324.6500   10842.4080
1326.6900   10840.9664
1328.7300   10841.4278
1330.7700   10842.8836
1332.8100   10843.7587
1334.8600   10843.8643
1336.9000   10844.4259
1338.9400   10844.8396
1340.9800   10845.4606
1343.0200   10845.5449
1345.0700   10844.7485
1347.1100   10844.1706
1349.1500   10843.6626
1351.1900   10842.6787
1353.2300   10842.7236
1355.2700   10843.3173
1357.3200   10843.0216
1359.3600   10843.4399
1361.4000   10844.0123
1363.4400   10844.1753
1365.4800   10843.6052
1367.5300   10843.3065
1369.5700   10843.2666
1371.6100   10842.8252
1373.6500   10842.5607
1375.6900   10841.9598
1377.7400   10841.6232
1379.7800   10842.1861
1381.8200   10842.6732
1383.8600   10843.2077
1385.9000   10843.5230
1387.9500   10843.4182
1389.9900   10842.9844
1392.0300   10843.2157
1394.0700   10843.2672
1396.1100   10842.5292
1398.1500   10841.8578
1400.2000   10840.9516
1402.2400   10841.4504
1404.2800   10842.5488
1406.3200   10843.4275
1408.3600   10843.8254
1410.4100   10844.5111
1412.4500   10844.3937
1414.4900   10843.8125
1416.5300   10842.9553
1418.5700   10842.9297
1420.6200   10843.2056
1422.6600   10842.8358
1424.7000   10840.8213
1426.7400   10838.8645
1428.7800   10838.8233
1430.8300   10839.7303
1432.8700   10840.3083
1434.9100   10840.0871
1436.9500   10840.1542
1438.9900   10840.5067
1441.0300   10840.4901
1443.0800   10839.9939
1445.1200   10839.0241
1447.1600   10838.6196
1449.2000   10838.7974
1451.2400   10839.0733
1453.2900   10838.9180
1455.3300   10838.8342
1457.3700   10839.7877
1459.4100   10842.6185
1461.4500   10842.8411
1463.5000   10840.9385
1465.5400   10839.6757
1467.5800   10839.4575
1469.6200   10839.6026
1471.6600   10839.8635
1473.7100   10840.4916
1475.7500   10841.0439
1477.7900   10840.6941
1479.8300   10839.5497
1481.8700   10839.5396
1483.9100   10839.6404
1485.9600   10839.3761
1488.0000   10838.9575
1490.0400   10839.0766
1492.0800   10839.5768
1494.1200   10840.2462
1496.1700   10841.4609
1498.2100   10842.0396
1500.2500   10842.1862
1502.2900   10841.9961
1504.3300   10841.4339
1506.3800   10841.3791
1508.4200   10841.8265
1510.4600   10842.4218
1512.5000   10842.4078
1514.5400   10842.1818
1516.5900   10842.3437
1518.6300   10842.0780
1520.6700   10842.2223
1522.7100   10842.1464
1524.7500   10842.2740
1526.7900   10842.7827
1528.8400   10843.4177
1530.8800   10843.5486
1532.9200   10843.0087
1534.9600   10842.7270
1537.0000   10842.6016
1539.0500   10843.0251
1541.0900   10843.7774
1543.1300   10844.0118
1545.1700   10844.1435
1547.2100   10844.7326
