#----------------------------------
# BOTDR
# DSTS: v.07.1
# Fri Oct 22 13:47:46 2021
#
# Channel No  = 2
# Partial   = 0
# Partial Start  = 0.00
# Partial End  = 5118.55
# Fibre Length    [m]   = 5118.55  0.00
# Fiber Delay    [m]   = 118.55
# Connection Point    [m]   = 198.64
# Rpt.period      [us]  = 65
# Pulse width     [ns]  = 40
# Frequency Start [MHz] = 10690.00
# Frequency End:  [MHz] = 10990.00
# Frequency Step: [MHz] = 5.00
# No.Averages:    [-]   = 12000
# Sampling Rate   [-]   = 2 (50.00MSs, spatial step = 2.00m)
# Input Range     [-]   = 2 (1V)
# Pulse Delay     [m]   = 100
# Post Pulse Data [m]   = 0
# Fiber Type      [-]   = CH4 Land
# Fiber  temperature [C] = 27.00
# Fiber  Bril Frequency  [MHz] = 10840.00
# Fiber  Strain Coefficient  [ue/MHz] = 18.9150
# Fiber Temperature Coefficient [C/MHz] = 0.9765
# Fiber Refractive Index = 1.4682
# Fiber Sigma = 0.2000
#
#----------------------------------
2509

-118.5500   10840.0000
-116.5500   10840.0000
-114.5500   10840.0000
-112.5500   10840.0000
-110.5500   10840.0000
-108.5500   10840.0000
-106.5500   10840.0000
-104.5500   10840.0000
-102.5500   10840.0000
-100.5500   10840.0000
-98.5500   10840.0000
-96.5500   10840.0000
-94.5500   10840.0000
-92.5500   10840.0000
-90.5500   10840.0000
-88.5500   10840.0000
-86.5500   10840.0000
-84.5500   10840.0000
-82.5500   10840.0000
-80.5500   10840.0000
-78.5500   10840.0000
-76.5500   10840.0000
-74.5500   10840.0000
-72.5500   10840.0000
-70.5500   10840.0000
-68.5500   10840.0000
-66.5500   10840.0000
-64.5500   10840.0000
-62.5500   10840.0000
-60.5500   10840.0000
-58.5500   10840.0000
-56.5500   10840.0000
-54.5500   10840.0000
-52.5500   10840.0000
-50.5500   10840.0000
-48.5500   10840.0000
-46.5500   10840.0000
-44.5500   10840.0000
-42.5500   10840.0000
-40.5500   10840.0000
-38.5500   10840.0000
-36.5500   10840.0000
-34.5500   10840.0000
-32.5500   10840.0000
-30.5500   10840.0000
-28.5500   10840.0000
-26.5500   10840.0000
-24.5500   10840.0000
-22.5500   10840.0000
-20.5500   10840.0000
-18.5500   10840.0000
-16.5500   10840.0000
-14.5500   10840.0000
-12.5500   10840.0000
-10.5500   10840.0000
-8.5500   10840.0000
-6.5500   10840.0000
-4.5500   10840.0000
-2.5500   10815.6792
-0.5500   10812.7929
1.4900   10807.3767
3.5300   10810.7034
5.5800   10838.8407
7.6200   10842.0263
9.6600   10842.2335
11.7000   10843.7017
13.7400   10846.1917
15.7900   10847.5920
17.8300   10847.9748
19.8700   10848.0604
21.9100   10847.4203
23.9500   10846.7217
25.9900   10846.1933
28.0400   10846.3613
30.0800   10847.3246
32.1200   10848.0814
34.1600   10848.2693
36.2000   10848.8312
38.2500   10849.5292
40.2900   10849.5952
42.3300   10849.3875
44.3700   10849.2062
46.4100   10849.2943
48.4600   10849.0974
50.5000   10849.0838
52.5400   10848.7477
54.5800   10848.7705
56.6200   10848.9125
58.6700   10848.6213
60.7100   10848.3767
62.7500   10848.4849
64.7900   10848.2999
66.8300   10848.4101
68.8700   10848.3514
70.9200   10848.5487
72.9600   10848.2146
75.0000   10848.2117
77.0400   10848.2668
79.0800   10847.9812
81.1300   10847.3233
83.1700   10846.7541
85.2100   10844.8539
87.2500   10755.0000
89.2900   10732.7795
91.3400   10770.0000
93.3800   10795.0000
95.4200   10799.7341
97.4600   10800.9555
99.5000   10801.6325
101.5500   10802.2011
103.5900   10802.0754
105.6300   10802.0177
107.6700   10801.3060
109.7100   10801.0696
111.7500   10800.9453
113.8000   10801.2044
115.8400   10801.2012
117.8800   10801.8407
119.9200   10802.5259
121.9600   10802.8111
124.0100   10802.5368
126.0500   10802.9927
128.0900   10803.1810
130.1300   10803.3825
132.1700   10804.3904
134.2200   10804.6468
136.2600   10804.7339
138.3000   10804.6708
140.3400   10803.8848
142.3800   10803.6687
144.4300   10805.9263
146.4700   10808.0239
148.5100   10808.9986
150.5500   10807.8524
152.5900   10805.8929
154.6300   10805.1881
156.6800   10805.3297
158.7200   10805.1234
160.7600   10805.2277
162.8000   10805.1733
164.8400   10804.6938
166.8900   10804.9305
168.9300   10805.6580
170.9700   10807.3002
173.0100   10808.9005
175.0500   10809.7391
177.1000   10809.9629
179.1400   10810.2034
181.1800   10810.3504
183.2200   10810.6005
185.2600   10810.4075
187.3100   10810.1052
189.3500   10809.4474
191.3900   10809.0282
193.4300   10809.3321
195.4700   10809.6282
197.5100   10809.7057
199.5600   10809.7122
201.6000   10809.6369
203.6400   10809.9125
205.6800   10810.4254
207.7200   10810.8888
209.7700   10811.0846
211.8100   10810.5923
213.8500   10810.6271
215.8900   10811.0875
217.9300   10811.5392
219.9800   10811.1382
222.0200   10809.8750
224.0600   10809.7464
226.1000   10810.3773
228.1400   10810.0388
230.1900   10808.6370
232.2300   10808.9995
234.2700   10809.4550
236.3100   10809.5401
238.3500   10810.5334
240.3900   10811.0226
242.4400   10810.5272
244.4800   10809.1449
246.5200   10806.9431
248.5600   10805.8776
250.6000   10806.9238
252.6500   10808.1762
254.6900   10808.6668
256.7300   10808.3383
258.7700   10807.6895
260.8100   10807.2043
262.8600   10807.2049
264.9000   10807.6874
266.9400   10807.7842
268.9800   10808.0161
271.0200   10808.5928
273.0700   10808.8545
275.1100   10809.5882
277.1500   10809.9353
279.1900   10810.0753
281.2300   10810.0069
283.2700   10809.7160
285.3200   10809.5672
287.3600   10808.7393
289.4000   10807.7655
291.4400   10807.3281
293.4800   10807.9147
295.5300   10807.8699
297.5700   10807.6848
299.6100   10807.7556
301.6500   10808.2027
303.6900   10808.4199
305.7400   10808.7024
307.7800   10808.2911
309.8200   10807.5447
311.8600   10807.1322
313.9000   10806.9916
315.9500   10807.3601
317.9900   10808.7929
320.0300   10809.5417
322.0700   10809.9543
324.1100   10810.1241
326.1500   10809.8945
328.2000   10809.9286
330.2400   10810.4332
332.2800   10811.2418
334.3200   10811.5054
336.3600   10811.1086
338.4100   10810.4467
340.4500   10810.1896
342.4900   10810.8730
344.5300   10811.3794
346.5700   10811.7593
348.6200   10812.1251
350.6600   10811.1257
352.7000   10810.0200
354.7400   10810.3286
356.7800   10811.4670
358.8300   10811.6845
360.8700   10811.8185
362.9100   10811.2528
364.9500   10810.8131
366.9900   10810.3932
369.0300   10810.7426
371.0800   10810.7450
373.1200   10810.2542
375.1600   10809.8275
377.2000   10809.8417
379.2400   10809.8377
381.2900   10809.5649
383.3300   10809.5168
385.3700   10808.9804
387.4100   10809.2863
389.4500   10809.5404
391.5000   10809.7724
393.5400   10809.6641
395.5800   10809.9930
397.6200   10810.1261
399.6600   10809.7860
401.7100   10809.6205
403.7500   10809.9346
405.7900   10810.1421
407.8300   10809.8063
409.8700   10810.2766
411.9100   10810.2595
413.9600   10810.5391
416.0000   10810.5079
418.0400   10810.5533
420.0800   10810.6627
422.1200   10810.9764
424.1700   10811.0585
426.2100   10810.8912
428.2500   10810.7527
430.2900   10811.4436
432.3300   10811.7184
434.3800   10812.0100
436.4200   10811.6787
438.4600   10811.6129
440.5000   10811.8739
442.5400   10811.6266
444.5900   10810.8055
446.6300   10810.6245
448.6700   10810.6064
450.7100   10811.4154
452.7500   10811.9842
454.7900   10811.8496
456.8400   10811.7710
458.8800   10811.0580
460.9200   10810.2129
462.9600   10808.8808
465.0000   10808.4769
467.0500   10808.5125
469.0900   10808.3600
471.1300   10809.3716
473.1700   10810.5421
475.2100   10811.9563
477.2600   10812.1574
479.3000   10810.4642
481.3400   10809.4186
483.3800   10810.4072
485.4200   10811.6769
487.4700   10811.7265
489.5100   10810.6764
491.5500   10809.9703
493.5900   10811.0444
495.6300   10812.0759
497.6700   10812.0209
499.7200   10812.0535
501.7600   10811.2791
503.8000   10810.0855
505.8400   10809.6127
507.8800   10809.7429
509.9300   10809.7976
511.9700   10810.0029
514.0100   10810.5791
516.0500   10810.5155
518.0900   10810.5607
520.1400   10811.1655
522.1800   10810.8051
524.2200   10809.4533
526.2600   10809.0976
528.3000   10808.4873
530.3500   10807.6895
532.3900   10807.3824
534.4300   10806.9740
536.4700   10806.3705
538.5100   10805.7662
540.5500   10805.3644
542.6000   10805.2954
544.6400   10805.5235
546.6800   10805.6898
548.7200   10805.7411
550.7600   10806.2085
552.8100   10807.7171
554.8500   10814.0688
556.8900   10825.4391
558.9300   10830.0019
560.9700   10829.6935
563.0200   10829.0129
565.0600   10828.5588
567.1000   10827.6578
569.1400   10827.5108
571.1800   10827.5174
573.2300   10827.0262
575.2700   10827.1259
577.3100   10828.0449
579.3500   10830.1445
581.3900   10832.4497
583.4300   10833.0386
585.4800   10833.3788
587.5200   10833.6930
589.5600   10833.8292
591.6000   10834.1481
593.6400   10834.3742
595.6900   10834.1947
597.7300   10834.2197
599.7700   10833.9302
601.8100   10833.5394
603.8500   10833.1312
605.9000   10833.0347
607.9400   10832.5887
609.9800   10831.8040
612.0200   10831.3824
614.0600   10831.8302
616.1100   10832.2100
618.1500   10832.2287
620.1900   10832.9617
622.2300   10833.0535
624.2700   10832.5302
626.3100   10833.2036
628.3600   10833.7500
630.4000   10834.6810
632.4400   10834.9064
634.4800   10835.0072
636.5200   10835.0281
638.5700   10834.8449
640.6100   10834.6928
642.6500   10834.4882
644.6900   10833.8665
646.7300   10833.4620
648.7800   10833.4125
650.8200   10832.3603
652.8600   10831.0243
654.9000   10830.0753
656.9400   10829.8190
658.9900   10830.1122
661.0300   10831.2575
663.0700   10832.0946
665.1100   10831.9652
667.1500   10832.3944
669.1900   10833.2337
671.2400   10834.3273
673.2800   10834.4137
675.3200   10833.4438
677.3600   10832.1989
679.4000   10832.0979
681.4500   10833.2032
683.4900   10832.9032
685.5300   10832.4395
687.5700   10832.9328
689.6100   10832.7256
691.6600   10832.1953
693.7000   10833.3167
695.7400   10834.1891
697.7800   10832.8905
699.8200   10832.9721
701.8700   10836.5388
703.9100   10839.7320
705.9500   10841.3502
707.9900   10842.9725
710.0300   10843.1246
712.0700   10842.9874
714.1200   10843.0860
716.1600   10841.8167
718.2000   10840.8745
720.2400   10840.5996
722.2800   10840.5401
724.3300   10840.9701
726.3700   10840.5740
728.4100   10840.0142
730.4500   10840.0399
732.4900   10840.1797
734.5400   10840.8573
736.5800   10841.9973
738.6200   10842.2366
740.6600   10841.9961
742.7000   10841.6739
744.7500   10841.2205
746.7900   10840.7010
748.8300   10840.3583
750.8700   10840.3968
752.9100   10840.2069
754.9500   10840.0586
757.0000   10839.4182
759.0400   10838.5469
761.0800   10838.0080
763.1200   10838.5905
765.1600   10839.1479
767.2100   10839.0789
769.2500   10838.9034
771.2900   10838.7896
773.3300   10839.1369
775.3700   10838.6203
777.4200   10837.7210
779.4600   10837.0971
781.5000   10837.1727
783.5400   10837.1751
785.5800   10837.1330
787.6300   10837.2684
789.6700   10837.2089
791.7100   10837.0176
793.7500   10836.7455
795.7900   10836.3668
797.8300   10834.8400
799.8800   10833.1054
801.9200   10834.2266
803.9600   10835.9661
806.0000   10836.3304
808.0400   10836.1064
810.0900   10836.2053
812.1300   10836.2013
814.1700   10836.6320
816.2100   10836.7731
818.2500   10836.9259
820.3000   10836.7336
822.3400   10836.9461
824.3800   10837.6247
826.4200   10837.5366
828.4600   10836.9845
830.5100   10836.8215
832.5500   10836.7128
834.5900   10837.2713
836.6300   10837.2235
838.6700   10836.7752
840.7100   10835.1343
842.7600   10834.1609
844.8000   10834.9649
846.8400   10835.2640
848.8800   10835.8567
850.9200   10835.7453
852.9700   10835.6860
855.0100   10835.8994
857.0500   10835.7897
859.0900   10835.1878
861.1300   10834.7049
863.1800   10834.2184
865.2200   10833.7649
867.2600   10833.3137
869.3000   10834.0789
871.3400   10835.0243
873.3900   10834.9726
875.4300   10834.0132
877.4700   10832.8266
879.5100   10833.2536
881.5500   10834.2959
883.5900   10834.5715
885.6400   10835.0879
887.6800   10835.2793
889.7200   10834.9042
891.7600   10834.8513
893.8000   10835.0301
895.8500   10835.2948
897.8900   10835.2236
899.9300   10834.5104
901.9700   10833.6254
904.0100   10833.7995
906.0600   10833.6494
908.1000   10833.6571
910.1400   10833.9419
912.1800   10833.5234
914.2200   10832.2886
916.2700   10832.0379
918.3100   10832.5291
920.3500   10833.0174
922.3900   10833.4000
924.4300   10833.5817
926.4700   10833.3363
928.5200   10832.7819
930.5600   10832.3551
932.6000   10832.0224
934.6400   10832.2346
936.6800   10831.9573
938.7300   10830.6316
940.7700   10829.8298
942.8100   10830.0827
944.8500   10830.7457
946.8900   10831.7888
948.9400   10831.9933
950.9800   10832.2371
953.0200   10832.2305
955.0600   10832.5309
957.1000   10832.7168
959.1500   10831.5305
961.1900   10830.4964
963.2300   10830.4069
965.2700   10829.9694
967.3100   10831.8212
969.3500   10833.8562
971.4000   10835.0083
973.4400   10835.0034
975.4800   10834.6189
977.5200   10835.0365
979.5600   10835.6123
981.6100   10835.2717
983.6500   10833.7944
985.6900   10832.7335
987.7300   10831.3302
989.7700   10831.6003
991.8200   10833.5189
993.8600   10834.1647
995.9000   10832.9095
997.9400   10831.3547
999.9800   10830.6389
1002.0300   10829.8519
1004.0700   10828.5649
1006.1100   10827.5706
1008.1500   10826.8353
1010.1900   10826.8206
1012.2300   10826.7662
1014.2800   10828.1173
1016.3200   10830.5933
1018.3600   10832.3059
1020.4000   10832.2965
1022.4400   10832.2517
1024.4900   10832.1665
1026.5300   10832.5923
1028.5700   10832.8645
1030.6100   10833.5947
1032.6500   10834.4201
1034.7000   10833.9303
1036.7400   10832.5213
1038.7800   10833.4335
1040.8200   10835.1956
1042.8600   10835.8819
1044.9100   10836.3064
1046.9500   10835.3531
1048.9900   10834.2376
1051.0300   10833.3374
1053.0700   10832.5036
1055.1100   10831.2030
1057.1600   10828.9784
1059.2000   10826.6566
1061.2400   10825.6725
1063.2800   10825.3366
1065.3200   10826.1048
1067.3700   10827.2723
1069.4100   10828.1006
1071.4500   10828.1119
1073.4900   10828.8331
1075.5300   10829.0307
1077.5800   10829.4713
1079.6200   10831.0134
1081.6600   10831.8209
1083.7000   10831.0780
1085.7400   10829.4994
1087.7900   10829.6983
1089.8300   10831.2342
1091.8700   10832.1894
1093.9100   10833.2522
1095.9500   10832.8085
1097.9900   10832.6633
1100.0400   10832.9637
1102.0800   10832.6920
1104.1200   10832.5579
1106.1600   10832.9737
1108.2000   10832.6214
1110.2500   10832.8511
1112.2900   10834.6150
1114.3300   10835.3712
1116.3700   10835.0030
1118.4100   10834.1920
1120.4600   10833.8978
1122.5000   10832.7933
1124.5400   10832.2682
1126.5800   10832.0927
1128.6200   10830.0801
1130.6700   10828.4265
1132.7100   10827.8567
1134.7500   10828.7735
1136.7900   10832.0640
1138.8300   10832.9435
1140.8700   10832.3648
1142.9200   10832.8508
1144.9600   10832.7448
1147.0000   10833.0459
1149.0400   10834.1355
1151.0800   10834.5144
1153.1300   10833.8860
1155.1700   10832.8790
1157.2100   10831.0366
1159.2500   10830.6324
1161.2900   10831.9468
1163.3400   10833.1120
1165.3800   10833.5826
1167.4200   10834.2578
1169.4600   10833.9561
1171.5000   10833.8109
1173.5500   10833.8093
1175.5900   10833.6823
1177.6300   10833.6815
1179.6700   10832.7068
1181.7100   10831.2260
1183.7500   10831.3243
1185.8000   10833.0609
1187.8400   10835.0094
1189.8800   10835.5445
1191.9200   10835.1321
1193.9600   10835.2741
1196.0100   10834.9953
1198.0500   10835.2317
1200.0900   10835.6198
1202.1300   10834.9290
1204.1700   10833.1033
1206.2200   10831.2608
1208.2600   10832.1714
1210.3000   10834.2340
1212.3400   10835.4822
1214.3800   10835.9584
1216.4300   10836.1895
1218.4700   10836.1013
1220.5100   10835.8595
1222.5500   10835.8595
1224.5900   10834.9094
1226.6300   10834.2460
1228.6800   10832.9718
1230.7200   10830.8746
1232.7600   10831.8633
1234.8000   10833.6744
1236.8400   10834.9763
1238.8900   10835.9776
1240.9300   10836.4137
1242.9700   10836.5725
1245.0100   10836.0624
1247.0500   10834.5895
1249.1000   10833.4795
1251.1400   10833.0210
1253.1800   10831.6988
1255.2200   10831.0012
1257.2600   10833.1686
1259.3100   10834.2338
1261.3500   10833.8290
1263.3900   10833.2326
1265.4300   10833.0755
1267.4700   10832.5317
1269.5100   10832.1793
1271.5600   10832.3440
1273.6000   10831.9706
1275.6400   10831.3389
1277.6800   10830.1915
1279.7200   10830.1020
1281.7700   10832.1865
1283.8100   10833.3557
1285.8500   10833.4317
1287.8900   10833.9968
1289.9300   10833.9896
1291.9800   10833.8045
1294.0200   10833.4040
1296.0600   10833.0009
1298.1000   10832.5589
1300.1400   10832.4291
1302.1900   10831.2345
1304.2300   10831.4963
1306.2700   10833.5896
1308.3100   10834.1198
1310.3500   10834.0112
1312.3900   10834.2248
1314.4400   10834.8962
1316.4800   10834.2381
1318.5200   10833.8478
1320.5600   10833.9037
1322.6000   10833.6026
1324.6500   10832.7746
1326.6900   10831.2131
1328.7300   10830.0823
1330.7700   10831.3651
1332.8100   10832.6904
1334.8600   10833.9898
1336.9000   10835.0517
1338.9400   10835.4144
1340.9800   10836.0763
1343.0200   10835.9908
1345.0700   10835.7219
1347.1100   10835.4422
1349.1500   10833.8628
1351.1900   10831.1603
1353.2300   10831.0600
1355.2700   10833.9757
1357.3200   10835.9019
1359.3600   10835.9483
1361.4000   10835.4841
1363.4400   10835.7142
1365.4800   10836.1416
1367.5300   10836.2626
1369.5700   10836.0221
1371.6100   10835.4606
1373.6500   10834.1262
1375.6900   10831.1978
1377.7400   10829.1963
1379.7800   10830.5660
1381.8200   10834.0071
1383.8600   10836.0771
1385.9000   10836.2264
1387.9500   10836.4471
1389.9900   10836.4676
1392.0300   10835.3671
1394.0700   10834.1370
1396.1100   10833.7487
1398.1500   10833.7736
1400.2000   10832.7679
1402.2400   10832.5821
1404.2800   10833.7919
1406.3200   10834.7707
1408.3600   10835.5296
1410.4100   10835.8421
1412.4500   10835.8034
1414.4900   10835.3227
1416.5300   10834.8684
1418.5700   10835.4155
1420.6200   10835.7139
1422.6600   10834.7507
1424.7000   10831.6473
1426.7400   10828.1362
1428.7800   10829.2589
1430.8300   10831.1825
1432.8700   10832.4061
1434.9100   10832.4802
1436.9500   10832.2190
1438.9900   10832.0821
1441.0300   10831.5172
1443.0800   10829.2684
1445.1200   10827.6829
1447.1600   10827.5213
1449.2000   10827.5991
1451.2400   10826.8095
1453.2900   10826.5429
1455.3300   10826.9653
1457.3700   10827.3661
1459.4100   10828.6757
1461.4500   10829.9066
1463.5000   10830.7960
1465.5400   10830.0192
1467.5800   10829.1108
1469.6200   10830.2287
1471.6600   10831.8381
1473.7100   10832.6096
1475.7500   10832.8530
1477.7900   10832.5402
1479.8300   10831.8865
1481.8700   10832.0450
1483.9100   10832.8438
1485.9600   10831.5928
1488.0000   10830.0682
1490.0400   10831.5574
1492.0800   10832.7486
1494.1200   10833.6050
1496.1700   10833.7056
1498.2100   10834.0079
1500.2500   10834.6203
1502.2900   10834.8438
1504.3300   10834.2468
1506.3800   10833.2633
1508.4200   10833.8028
1510.4600   10834.2123
1512.5000   10834.6635
1514.5400   10834.8848
1516.5900   10834.4170
1518.6300   10833.1841
1520.6700   10830.4414
1522.7100   10829.5049
1524.7500   10832.0400
1526.7900   10834.0943
1528.8400   10834.5400
1530.8800   10834.8262
1532.9200   10834.6826
1534.9600   10834.3362
1537.0000   10834.7322
1539.0500   10835.5998
1541.0900   10836.8289
1543.1300   10836.5834
1545.1700   10835.9511
1547.2100   10836.2769
