#----------------------------------
# BOTDR
# DSTS: v.07.1
# Fri Oct 22 14:48:43 2021
#
# Channel No  = 0
# Partial   = 0
# Partial Start  = 0.00
# Partial End  = 4118.55
# Fibre Length    [m]   = 4118.55  0.00
# Fiber Delay    [m]   = 118.55
# Connection Point    [m]   = 198.64
# Rpt.period      [us]  = 65
# Pulse width     [ns]  = 40
# Frequency Start [MHz] = 10690.00
# Frequency End:  [MHz] = 10990.00
# Frequency Step: [MHz] = 5.00
# No.Averages:    [-]   = 12000
# Sampling Rate   [-]   = 0 (200.00MSs, spatial step = 0.50m)
# Input Range     [-]   = 2 (1V)
# Pulse Delay     [m]   = 100
# Post Pulse Data [m]   = 0
# Fiber Type      [-]   = CH4 Land
# Fiber  temperature [C] = 27.00
# Fiber  Bril Frequency  [MHz] = 10840.00
# Fiber  Strain Coefficient  [ue/MHz] = 18.9150
# Fiber Temperature Coefficient [C/MHz] = 0.9765
# Fiber Refractive Index = 1.4682
# Fiber Sigma = 0.2000
#
#----------------------------------
8074

-118.5500   10840.0000
-118.0500   10840.0000
-117.5500   10840.0000
-117.0500   10840.0000
-116.5500   10840.0000
-116.0500   10840.0000
-115.5500   10840.0000
-115.0500   10840.0000
-114.5500   10840.0000
-114.0500   10840.0000
-113.5500   10840.0000
-113.0500   10840.0000
-112.5500   10840.0000
-112.0500   10840.0000
-111.5500   10840.0000
-111.0500   10840.0000
-110.5500   10840.0000
-110.0500   10840.0000
-109.5500   10840.0000
-109.0500   10840.0000
-108.5500   10840.0000
-108.0500   10840.0000
-107.5500   10840.0000
-107.0500   10840.0000
-106.5500   10840.0000
-106.0500   10840.0000
-105.5500   10840.0000
-105.0500   10840.0000
-104.5500   10840.0000
-104.0500   10840.0000
-103.5500   10840.0000
-103.0500   10840.0000
-102.5500   10840.0000
-102.0500   10840.0000
-101.5500   10840.0000
-101.0500   10840.0000
-100.5500   10840.0000
-100.0500   10840.0000
-99.5500   10840.0000
-99.0500   10840.0000
-98.5500   10840.0000
-98.0500   10840.0000
-97.5500   10840.0000
-97.0500   10840.0000
-96.5500   10840.0000
-96.0500   10840.0000
-95.5500   10840.0000
-95.0500   10840.0000
-94.5500   10840.0000
-94.0500   10840.0000
-93.5500   10840.0000
-93.0500   10840.0000
-92.5500   10840.0000
-92.0500   10840.0000
-91.5500   10840.0000
-91.0500   10840.0000
-90.5500   10840.0000
-90.0500   10840.0000
-89.5500   10840.0000
-89.0500   10840.0000
-88.5500   10840.0000
-88.0500   10840.0000
-87.5500   10840.0000
-87.0500   10840.0000
-86.5500   10840.0000
-86.0500   10840.0000
-85.5500   10840.0000
-85.0500   10840.0000
-84.5500   10840.0000
-84.0500   10840.0000
-83.5500   10840.0000
-83.0500   10840.0000
-82.5500   10840.0000
-82.0500   10840.0000
-81.5500   10840.0000
-81.0500   10840.0000
-80.5500   10840.0000
-80.0500   10840.0000
-79.5500   10840.0000
-79.0500   10840.0000
-78.5500   10840.0000
-78.0500   10840.0000
-77.5500   10840.0000
-77.0500   10840.0000
-76.5500   10840.0000
-76.0500   10840.0000
-75.5500   10840.0000
-75.0500   10840.0000
-74.5500   10840.0000
-74.0500   10840.0000
-73.5500   10840.0000
-73.0500   10840.0000
-72.5500   10840.0000
-72.0500   10840.0000
-71.5500   10840.0000
-71.0500   10840.0000
-70.5500   10840.0000
-70.0500   10840.0000
-69.5500   10840.0000
-69.0500   10840.0000
-68.5500   10840.0000
-68.0500   10840.0000
-67.5500   10840.0000
-67.0500   10840.0000
-66.5500   10840.0000
-66.0500   10840.0000
-65.5500   10840.0000
-65.0500   10840.0000
-64.5500   10840.0000
-64.0500   10840.0000
-63.5500   10840.0000
-63.0500   10840.0000
-62.5500   10840.0000
-62.0500   10840.0000
-61.5500   10840.0000
-61.0500   10840.0000
-60.5500   10840.0000
-60.0500   10840.0000
-59.5500   10840.0000
-59.0500   10840.0000
-58.5500   10840.0000
-58.0500   10840.0000
-57.5500   10840.0000
-57.0500   10840.0000
-56.5500   10840.0000
-56.0500   10840.0000
-55.5500   10840.0000
-55.0500   10840.0000
-54.5500   10840.0000
-54.0500   10840.0000
-53.5500   10840.0000
-53.0500   10840.0000
-52.5500   10840.0000
-52.0500   10840.0000
-51.5500   10840.0000
-51.0500   10840.0000
-50.5500   10840.0000
-50.0500   10840.0000
-49.5500   10840.0000
-49.0500   10840.0000
-48.5500   10840.0000
-48.0500   10840.0000
-47.5500   10840.0000
-47.0500   10840.0000
-46.5500   10840.0000
-46.0500   10840.0000
-45.5500   10840.0000
-45.0500   10840.0000
-44.5500   10840.0000
-44.0500   10840.0000
-43.5500   10840.0000
-43.0500   10840.0000
-42.5500   10840.0000
-42.0500   10840.0000
-41.5500   10840.0000
-41.0500   10840.0000
-40.5500   10840.0000
-40.0500   10840.0000
-39.5500   10840.0000
-39.0500   10840.0000
-38.5500   10840.0000
-38.0500   10840.0000
-37.5500   10840.0000
-37.0500   10840.0000
-36.5500   10840.0000
-36.0500   10840.0000
-35.5500   10840.0000
-35.0500   10840.0000
-34.5500   10840.0000
-34.0500   10840.0000
-33.5500   10840.0000
-33.0500   10840.0000
-32.5500   10840.0000
-32.0500   10840.0000
-31.5500   10840.0000
-31.0500   10840.0000
-30.5500   10840.0000
-30.0500   10840.0000
-29.5500   10840.0000
-29.0500   10840.0000
-28.5500   10840.0000
-28.0500   10840.0000
-27.5500   10840.0000
-27.0500   10840.0000
-26.5500   10840.0000
-26.0500   10840.0000
-25.5500   10840.0000
-25.0500   10840.0000
-24.5500   10840.0000
-24.0500   10840.0000
-23.5500   10840.0000
-23.0500   10840.0000
-22.5500   10840.0000
-22.0500   10840.0000
-21.5500   10840.0000
-21.0500   10840.0000
-20.5500   10840.0000
-20.0500   10840.0000
-19.5500   10840.0000
-19.0500   10840.0000
-18.5500   10840.0000
-18.0500   10840.0000
-17.5500   10840.0000
-17.0500   10840.0000
-16.5500   10840.0000
-16.0500   10840.0000
-15.5500   10840.0000
-15.0500   10840.0000
-14.5500   10840.0000
-14.0500   10840.0000
-13.5500   10840.0000
-13.0500   10840.0000
-12.5500   10840.0000
-12.0500   10840.0000
-11.5500   10840.0000
-11.0500   10840.0000
-10.5500   10840.0000
-10.0500   10840.0000
-9.5500   10840.0000
-9.0500   10840.0000
-8.5500   10840.0000
-8.0500   10840.0000
-7.5500   10840.0000
-7.0500   10840.0000
-6.5500   10840.0000
-6.0500   10840.0000
-5.5500   10840.0000
-5.0500   10840.0000
-4.5500   10840.0000
-4.0500   10840.0000
-3.5500   10840.0000
-3.0500   10840.0000
-2.5500   10840.0000
-2.0500   10840.0000
-1.5500   10840.0000
-1.0500   10810.7608
-0.5500   10810.3907
-0.0500   10809.8791
0.4600   10809.4866
0.9700   10808.9981
1.4800   10808.6362
1.9900   10808.2973
2.5000   10808.3672
3.0100   10808.6993
3.5200   10810.0475
4.0300   10812.2675
4.5400   10816.6388
5.0500   10821.1345
5.5700   10825.6239
6.0800   10828.0396
6.5900   10829.7155
7.1000   10830.4826
7.6100   10831.0507
8.1200   10831.3491
8.6300   10831.6163
9.1400   10831.8107
9.6500   10832.0766
10.1600   10832.2467
10.6700   10832.5808
11.1800   10832.8999
11.6900   10833.3790
12.2000   10833.9200
12.7100   10834.6249
13.2200   10835.3264
13.7300   10836.1030
14.2400   10836.7129
14.7500   10837.2376
15.2600   10837.6276
15.7700   10837.8170
16.2900   10838.0496
16.8000   10838.0402
17.3100   10838.1566
17.8200   10838.0377
18.3300   10838.0837
18.8400   10837.9042
19.3500   10837.9642
19.8600   10837.8648
20.3700   10837.9701
20.8800   10837.9324
21.3900   10838.0565
21.9000   10837.9320
22.4100   10837.9885
22.9200   10837.7560
23.4300   10837.7306
23.9400   10837.4981
24.4500   10837.5445
24.9600   10837.3358
25.4700   10837.3626
25.9800   10837.1295
26.4900   10837.1389
27.0100   10836.9252
27.5200   10836.9854
28.0300   10836.8778
28.5400   10837.0340
29.0500   10837.0542
29.5600   10837.2474
30.0700   10837.2647
30.5800   10837.4503
31.0900   10837.3925
31.6000   10837.5158
32.1100   10837.4591
32.6200   10837.6271
33.1300   10837.5971
33.6400   10837.8457
34.1500   10837.9600
34.6600   10838.2638
35.1700   10838.4171
35.6800   10838.7906
36.1900   10838.9439
36.7000   10839.3178
37.2100   10839.3998
37.7300   10839.6929
38.2400   10839.7214
38.7500   10839.9280
39.2600   10839.8572
39.7700   10839.9953
40.2800   10839.8517
40.7900   10839.9108
41.3000   10839.6870
41.8100   10839.7178
42.3200   10839.4852
42.8300   10839.5831
43.3400   10839.3788
43.8500   10839.4900
44.3600   10839.3423
44.8700   10839.4274
45.3800   10839.2913
45.8900   10839.4232
46.4000   10839.3111
46.9100   10839.5107
47.4200   10839.4438
47.9300   10839.6804
48.4500   10839.6408
48.9600   10839.8510
49.4700   10839.7565
49.9800   10839.9251
50.4900   10839.8189
51.0000   10839.9754
51.5100   10839.8252
52.0200   10839.9280
52.5300   10839.7584
53.0400   10839.8766
53.5500   10839.6902
54.0600   10839.8367
54.5700   10839.6742
55.0800   10839.7609
55.5900   10839.5254
56.1000   10839.5783
56.6100   10839.3950
57.1200   10839.5237
57.6300   10839.4490
58.1400   10839.5962
58.6500   10839.5125
59.1700   10839.6341
59.6800   10839.4686
60.1900   10839.5899
60.7000   10839.3758
61.2100   10839.4833
61.7200   10839.2833
62.2300   10839.4428
62.7400   10839.3010
63.2500   10839.4246
63.7600   10839.2721
64.2700   10839.3878
64.7800   10839.1889
65.2900   10839.3262
65.8000   10839.1792
66.3100   10839.3465
66.8200   10839.1918
67.3300   10839.3294
67.8400   10839.1619
68.3500   10839.3047
68.8600   10839.0914
69.3700   10839.2158
69.8900   10839.0116
70.4000   10839.1945
70.9100   10839.0948
71.4200   10839.2538
71.9300   10839.1934
72.4400   10839.3820
72.9500   10839.2647
73.4600   10839.4431
73.9700   10839.3188
74.4800   10839.5159
74.9900   10839.3804
75.5000   10839.5505
76.0100   10839.3450
76.5200   10839.4040
77.0300   10839.1392
77.5400   10839.1876
78.0500   10838.9610
78.5600   10838.9839
79.0700   10838.7629
79.5800   10838.7501
80.0900   10838.3234
80.6100   10838.1086
81.1200   10837.4695
81.6300   10837.1183
82.1400   10836.4528
82.6500   10836.1054
83.1600   10835.4507
83.6700   10835.1178
84.1800   10834.3261
84.6900   10833.7688
85.2000   10832.2675
85.7100   10830.2700
86.2200   10808.1313
86.7300   10795.4865
87.2400   10775.4391
87.7500   10761.0657
88.2600   10758.9223
88.7700   10757.7641
89.2800   10756.1297
89.7900   10753.9404
90.3000   10749.8789
90.8100   10745.3647
91.3300   10744.4680
91.8400   10757.2842
92.3500   10810.1554
92.8600   10812.5808
93.3700   10814.1195
93.8800   10814.9417
94.3900   10815.5074
94.9000   10815.7538
95.4100   10815.9690
95.9200   10815.9865
96.4300   10816.0327
96.9400   10815.9943
97.4500   10816.1029
97.9600   10816.1318
98.4700   10816.3614
98.9800   10816.4677
99.4900   10816.7951
100.0000   10816.9222
100.5100   10817.2300
101.0200   10817.3226
101.5300   10817.6105
102.0500   10817.6705
102.5600   10817.8709
103.0700   10817.9243
103.5800   10818.0821
104.0900   10818.0590
104.6000   10818.1355
105.1100   10817.9834
105.6200   10817.9845
106.1300   10817.8000
106.6400   10817.7880
107.1500   10817.6534
107.6600   10817.6952
108.1700   10817.6321
108.6800   10817.7055
109.1900   10817.6122
109.7000   10817.6802
110.2100   10817.5880
110.7200   10817.6373
111.2300   10817.5550
111.7400   10817.6599
112.2500   10817.5815
112.7700   10817.6188
113.2800   10817.5236
113.7900   10817.5622
114.3000   10817.3994
114.8100   10817.4593
115.3200   10817.3956
115.8300   10817.4795
116.3400   10817.4367
116.8500   10817.6416
117.3600   10817.6791
117.8700   10817.9652
118.3800   10818.0463
118.8900   10818.3214
119.4000   10818.3663
119.9100   10818.5458
120.4200   10818.4646
120.9300   10818.6396
121.4400   10818.6094
121.9500   10818.7843
122.4600   10818.7512
122.9700   10818.9105
123.4900   10818.8147
124.0000   10818.8928
124.5100   10818.7808
125.0200   10818.8675
125.5300   10818.8121
126.0400   10818.9903
126.5500   10819.0598
127.0600   10819.2818
127.5700   10819.3608
128.0800   10819.6219
128.5900   10819.6642
129.1000   10819.8149
129.6100   10819.7640
130.1200   10819.9203
130.6300   10819.8980
131.1400   10820.1301
131.6500   10820.2755
132.1600   10820.6943
132.6700   10820.9429
133.1800   10821.3918
133.6900   10821.6366
134.2100   10821.8694
134.7200   10821.7662
135.2300   10821.7394
135.7400   10821.4363
136.2500   10821.3235
136.7600   10821.0925
137.2700   10821.0132
137.7800   10820.8483
138.2900   10820.8598
138.8000   10820.6912
139.3100   10820.6614
139.8200   10820.4951
140.3300   10820.4939
140.8400   10820.3479
141.3500   10820.3661
141.8600   10820.2604
142.3700   10820.4437
142.8800   10820.4899
143.3900   10820.8895
143.9000   10821.1744
144.4100   10821.8542
144.9300   10822.2563
145.4400   10822.9508
145.9500   10823.3240
146.4600   10823.7725
146.9700   10823.9400
147.4800   10824.2316
147.9900   10824.2895
148.5000   10824.5515
149.0100   10824.6217
149.5200   10824.7611
150.0300   10824.7076
150.5400   10824.6377
151.0500   10824.3415
151.5600   10824.0352
152.0700   10823.6032
152.5800   10823.2037
153.0900   10822.7435
153.6000   10822.3967
154.1100   10822.0170
154.6200   10821.7915
155.1300   10821.5447
155.6500   10821.4983
156.1600   10821.4083
156.6700   10821.5197
157.1800   10821.4853
157.6900   10821.5784
158.2000   10821.4924
158.7100   10821.4656
159.2200   10821.2960
159.7300   10821.2467
160.2400   10821.0710
160.7500   10821.0395
161.2600   10820.9184
161.7700   10820.9172
162.2800   10820.8446
162.7900   10820.9277
163.3000   10820.8917
163.8100   10821.0471
164.3200   10821.0306
164.8300   10821.1524
165.3400   10821.0829
165.8500   10821.1061
166.3700   10821.0020
166.8800   10821.0398
167.3900   10820.9680
167.9000   10821.1567
168.4100   10821.2297
168.9200   10821.6440
169.4300   10821.9160
169.9400   10822.5641
170.4500   10823.0027
170.9600   10823.6374
171.4700   10823.9285
171.9800   10824.3020
172.4900   10824.4033
173.0000   10824.5683
173.5100   10824.6643
174.0200   10824.9373
174.5300   10825.1013
175.0400   10825.4982
175.5500   10825.6728
176.0600   10826.0126
176.5700   10826.0993
177.0900   10826.3261
177.6000   10826.4240
178.1100   10826.6140
178.6200   10826.7310
179.1300   10826.9962
179.6400   10827.0899
180.1500   10827.2586
180.6600   10827.2390
181.1700   10827.3127
181.6800   10827.2296
182.1900   10827.2187
182.7000   10827.1042
183.2100   10827.0489
183.7200   10826.9522
184.2300   10826.9380
184.7400   10826.7972
185.2500   10826.7255
185.7600   10826.5515
186.2700   10826.4723
186.7800   10826.3569
187.2900   10826.3761
187.8100   10826.3220
188.3200   10826.3801
188.8300   10826.3166
189.3400   10826.3018
189.8500   10826.1770
190.3600   10826.0325
190.8700   10825.8014
191.3800   10825.6302
191.8900   10825.4587
192.4000   10825.3909
192.9100   10825.2730
193.4200   10825.3238
193.9300   10825.3554
194.4400   10825.5296
194.9500   10825.6055
195.4600   10825.8144
195.9700   10825.9012
196.4800   10826.0980
196.9900   10826.1633
197.5000   10826.2806
198.0100   10826.3101
198.5300   10826.3892
199.0400   10826.3449
199.5500   10826.3613
200.0600   10826.3452
200.5700   10826.3687
201.0800   10826.3186
201.5900   10826.3267
202.1000   10826.2286
202.6100   10826.2076
203.1200   10826.1167
203.6300   10826.1289
204.1400   10826.0951
204.6500   10826.2259
205.1600   10826.3109
205.6700   10826.4503
206.1800   10826.5435
206.6900   10826.7106
207.2000   10826.7538
207.7100   10826.8398
208.2200   10826.8719
208.7300   10826.9119
209.2500   10826.9143
209.7600   10826.9771
210.2700   10827.0085
210.7800   10827.0957
211.2900   10827.1583
211.8000   10827.2635
212.3100   10827.2660
212.8200   10827.2443
213.3300   10827.1281
213.8400   10826.9889
214.3500   10826.8562
214.8600   10826.7645
215.3700   10826.7027
215.8800   10826.7080
216.3900   10826.6977
216.9000   10826.6827
217.4100   10826.5972
217.9200   10826.5439
218.4300   10826.5016
218.9400   10826.5043
219.4500   10826.4579
219.9700   10826.4955
220.4800   10826.3876
220.9900   10826.2265
221.5000   10825.9666
222.0100   10825.6489
222.5200   10825.2963
223.0300   10824.9221
223.5400   10824.5396
224.0500   10824.3093
224.5600   10824.0687
225.0700   10823.9803
225.5800   10823.9169
226.0900   10824.0281
226.6000   10824.0678
227.1100   10824.1286
227.6200   10824.1250
228.1300   10824.0965
228.6400   10823.9119
229.1500   10823.7512
229.6600   10823.4938
230.1700   10823.3423
230.6900   10823.2121
231.2000   10823.2233
231.7100   10823.2979
232.2200   10823.5483
232.7300   10823.7017
233.2400   10823.9812
233.7500   10824.1618
234.2600   10824.3584
234.7700   10824.4609
235.2800   10824.5948
235.7900   10824.6655
236.3000   10824.8946
236.8100   10824.9859
237.3200   10825.2403
237.8300   10825.4156
238.3400   10825.6740
238.8500   10825.8019
239.3600   10825.9833
239.8700   10825.9839
240.3800   10826.1602
240.8900   10826.1603
241.4100   10826.2739
241.9200   10826.2492
242.4300   10826.2864
242.9400   10826.1566
243.4500   10825.9944
243.9600   10825.6515
244.4700   10825.2816
244.9800   10824.8349
245.4900   10824.3948
246.0000   10823.9244
246.5100   10823.5905
247.0200   10823.2264
247.5300   10822.9630
248.0400   10822.7160
248.5500   10822.6628
249.0600   10822.6206
249.5700   10822.7590
250.0800   10822.8077
250.5900   10823.0175
251.1000   10823.1204
251.6100   10823.3249
252.1300   10823.4635
252.6400   10823.7402
253.1500   10823.9058
253.6600   10824.1531
254.1700   10824.2696
254.6800   10824.3652
255.1900   10824.3546
255.7000   10824.3629
256.2100   10824.2919
256.7200   10824.2521
257.2300   10824.1038
257.7400   10824.0528
258.2500   10823.8989
258.7600   10823.8331
259.2700   10823.6834
259.7800   10823.5834
260.2900   10823.4532
260.8000   10823.4249
261.3100   10823.3463
261.8200   10823.3649
262.3300   10823.3120
262.8500   10823.3916
263.3600   10823.4069
263.8700   10823.6139
264.3800   10823.6822
264.8900   10824.0043
265.4000   10824.1167
265.9100   10824.3544
266.4200   10824.3851
266.9300   10824.4143
267.4400   10824.2811
267.9500   10824.1743
268.4600   10823.9613
268.9700   10823.8997
269.4800   10823.7404
269.9900   10823.7614
270.5000   10823.6955
271.0100   10823.7698
271.5200   10823.7410
272.0300   10823.8810
272.5400   10823.8649
273.0500   10823.9801
273.5700   10823.9208
274.0800   10823.9324
274.5900   10823.8549
275.1000   10823.8615
275.6100   10823.7895
276.1200   10823.8107
276.6300   10823.7382
277.1400   10823.7775
277.6500   10823.7139
278.1600   10823.7168
278.6700   10823.5856
279.1800   10823.5441
279.6900   10823.3687
280.2000   10823.3836
280.7100   10823.2901
281.2200   10823.3930
281.7300   10823.4390
282.2400   10823.7122
282.7500   10823.8776
283.2600   10824.1630
283.7700   10824.2769
284.2900   10824.4360
284.8000   10824.4487
285.3100   10824.5079
285.8200   10824.3979
286.3300   10824.3601
286.8400   10824.1913
287.3500   10824.1595
287.8600   10823.9534
288.3700   10823.8270
288.8800   10823.6398
289.3900   10823.5542
289.9000   10823.3938
290.4100   10823.4494
290.9200   10823.4379
291.4300   10823.6047
291.9400   10823.6674
292.4500   10823.9029
292.9600   10823.9380
293.4700   10824.0628
293.9800   10824.0056
294.4900   10824.0335
295.0100   10824.0079
295.5200   10824.1212
296.0300   10824.2036
296.5400   10824.4722
297.0500   10824.5790
297.5600   10824.8351
298.0700   10824.9136
298.5800   10825.0683
299.0900   10825.1202
299.6000   10825.2859
300.1100   10825.3452
300.6200   10825.5315
301.1300   10825.5535
301.6400   10825.6407
302.1500   10825.5900
302.6600   10825.6566
303.1700   10825.6184
303.6800   10825.7291
304.1900   10825.7476
304.7000   10825.8940
305.2100   10825.9393
