#----------------------------------
# BOTDR
# DSTS: v.07.1
# Fri Oct 22 13:47:46 2021
#
# Channel No  = 2
# Partial   = 0
# Partial Start  = 0.00
# Partial End  = 5118.55
# Fibre Length    [m]   = 5118.55  0.00
# Fiber Delay    [m]   = 118.55
# Connection Point    [m]   = 198.64
# Rpt.period      [us]  = 65
# Pulse width     [ns]  = 40
# Frequency Start [MHz] = 10690.00
# Frequency End:  [MHz] = 10990.00
# Frequency Step: [MHz] = 5.00
# No.Averages:    [-]   = 12000
# Sampling Rate   [-]   = 2 (50.00MSs, spatial step = 2.00m)
# Input Range     [-]   = 2 (1V)
# Pulse Delay     [m]   = 100
# Post Pulse Data [m]   = 0
# Fiber Type      [-]   = CH4 Land
# Fiber  temperature [C] = 27.00
# Fiber  Bril Frequency  [MHz] = 10840.00
# Fiber  Strain Coefficient  [ue/MHz] = 18.9150
# Fiber Temperature Coefficient [C/MHz] = 0.9765
# Fiber Refractive Index = 1.4682
# Fiber Sigma = 0.2000
#
#----------------------------------
2509

-118.5500   0.0000
-116.5500   0.0000
-114.5500   0.0000
-112.5500   0.0000
-110.5500   0.0000
-108.5500   0.0000
-106.5500   0.0000
-104.5500   0.0000
-102.5500   0.0000
-100.5500   0.0000
-98.5500   0.0000
-96.5500   0.0000
-94.5500   0.0000
-92.5500   0.0000
-90.5500   0.0000
-88.5500   0.0000
-86.5500   0.0000
-84.5500   0.0000
-82.5500   0.0000
-80.5500   0.0000
-78.5500   0.0000
-76.5500   0.0000
-74.5500   0.0000
-72.5500   0.0000
-70.5500   0.0000
-68.5500   0.0000
-66.5500   0.0000
-64.5500   0.0000
-62.5500   0.0000
-60.5500   0.0000
-58.5500   0.0000
-56.5500   0.0000
-54.5500   0.0000
-52.5500   0.0000
-50.5500   0.0000
-48.5500   0.0000
-46.5500   0.0000
-44.5500   0.0000
-42.5500   0.0000
-40.5500   0.0000
-38.5500   0.0000
-36.5500   0.0000
-34.5500   0.0000
-32.5500   0.0000
-30.5500   0.0000
-28.5500   0.0000
-26.5500   0.0000
-24.5500   0.0000
-22.5500   0.0000
-20.5500   0.0000
-18.5500   0.0000
-16.5500   0.0000
-14.5500   0.0000
-12.5500   0.0000
-10.5500   0.0000
-8.5500   0.0000
-6.5500   0.0000
-4.5500   0.0000
-2.5500   -89.1938
-0.5500   -154.1506
1.4900   -168.9634
3.5300   688.1424
5.5800   1437.1518
7.6200   1099.5371
9.6600   512.1843
11.7000   515.9395
13.7400   559.0292
15.7900   576.6098
17.8300   574.0402
19.8700   578.4883
21.9100   571.8575
23.9500   559.3899
25.9900   547.0267
28.0400   550.8594
30.0800   570.0314
32.1200   574.7956
34.1600   571.1118
36.2000   576.3380
38.2500   583.3319
40.2900   584.3691
42.3300   577.5193
44.3700   564.9703
46.4100   556.4157
48.4600   532.1628
50.5000   521.5810
52.5400   528.7335
54.5800   536.8656
56.6200   547.8145
58.6700   523.4549
60.7100   470.1009
62.7500   436.5060
64.7900   425.8710
66.8300   445.0912
68.8700   476.7379
70.9200   492.9296
72.9600   483.1579
75.0000   488.7629
77.0400   496.9902
79.0800   489.2800
81.1300   475.0426
83.1700   455.4131
85.2100   388.8091
87.2500   -1362.1675
89.2900   -1841.4326
91.3400   -1170.9312
93.3800   -711.7336
95.4200   -632.0044
97.4600   -612.4985
99.5000   -600.5989
101.5500   -588.2306
103.5900   -580.0415
105.6300   -576.1328
107.6700   -586.2607
109.7100   -594.3771
111.7500   -599.0437
113.8000   -594.0199
115.8400   -586.0645
117.8800   -570.9932
119.9200   -559.1384
121.9600   -549.8740
124.0100   -550.6568
126.0500   -539.3055
128.0900   -533.6660
130.1300   -527.9685
132.1700   -515.9956
134.2200   -525.8917
136.2600   -515.7562
138.3000   -500.5504
140.3400   -508.9657
142.3800   -524.4001
144.4300   -487.8723
146.4700   -435.8609
148.5100   -413.2335
150.5500   -415.5784
152.5900   -425.8075
154.6300   -417.7453
156.6800   -433.1809
158.7200   -460.8788
160.7600   -438.0756
162.8000   -405.1686
164.8400   -426.4099
166.8900   -460.1944
168.9300   -480.2381
170.9700   -446.5033
173.0100   -361.3871
175.0500   -284.8203
177.1000   -272.7960
179.1400   -311.2504
181.1800   -367.0918
183.2200   -380.2160
185.2600   -352.6476
187.3100   -336.8609
189.3500   -377.1060
191.3900   -386.7052
193.4300   -346.2654
195.4700   -321.0093
197.5100   -344.8039
199.5600   -379.8894
201.6000   -389.8428
203.6400   -352.9794
205.6800   -340.6987
207.7200   -376.7875
209.7700   -401.0213
211.8100   -421.0842
213.8500   -424.6322
215.8900   -410.9726
217.9300   -411.8503
219.9800   -423.2286
222.0200   -448.6459
224.0600   -449.5974
226.1000   -420.2155
228.1400   -394.1863
230.1900   -408.3720
232.2300   -425.6337
234.2700   -435.8043
236.3100   -440.5889
238.3500   -420.3401
240.3900   -405.3777
242.4400   -408.7991
244.4800   -442.8452
246.5200   -488.5223
248.5600   -510.3951
250.6000   -480.0273
252.6500   -419.7927
254.6900   -395.3210
256.7300   -446.3113
258.7700   -484.1213
260.8100   -491.4545
262.8600   -492.6626
264.9000   -480.0249
266.9400   -468.8802
268.9800   -459.0991
271.0200   -449.8653
273.0700   -421.7992
275.1100   -363.9061
277.1500   -311.8607
279.1900   -282.0844
281.2300   -279.8336
283.2700   -288.7404
285.3200   -294.5101
287.3600   -307.5871
289.4000   -325.1361
291.4400   -335.5605
293.4800   -326.5443
295.5300   -332.7017
297.5700   -338.5068
299.6100   -334.2614
301.6500   -319.3528
303.6900   -310.7234
305.7400   -303.5382
307.7800   -312.1841
309.8200   -330.5739
311.8600   -339.1122
313.9000   -355.7581
315.9500   -362.1697
317.9900   -346.6260
320.0300   -347.1934
322.0700   -342.2703
324.1100   -323.0146
326.1500   -316.7113
328.2000   -334.1661
330.2400   -346.6229
332.2800   -329.3919
334.3200   -312.0877
336.3600   -322.1693
338.4100   -325.8664
340.4500   -327.7513
342.4900   -308.9848
344.5300   -302.8215
346.5700   -291.0152
348.6200   -262.0602
350.6600   -275.3734
352.7000   -291.1076
354.7400   -273.5517
356.7800   -247.1243
358.8300   -243.8354
360.8700   -249.8515
362.9100   -281.0926
364.9500   -313.5315
366.9900   -341.4883
369.0300   -351.6627
371.0800   -371.9161
373.1200   -392.6361
375.1600   -396.9506
377.2000   -373.8419
379.2400   -376.9543
381.2900   -407.1004
383.3300   -417.2883
385.3700   -427.5553
387.4100   -430.7026
389.4500   -430.9470
391.5000   -425.8218
393.5400   -419.9665
395.5800   -400.5628
397.6200   -393.5213
399.6600   -414.1197
401.7100   -431.6062
403.7500   -422.7458
405.7900   -410.4570
407.8300   -395.6816
409.8700   -372.3203
411.9100   -393.4686
413.9600   -404.3890
416.0000   -408.9657
418.0400   -404.7615
420.0800   -399.4226
422.1200   -390.6907
424.1700   -390.3943
426.2100   -400.3506
428.2500   -405.2946
430.2900   -388.7630
432.3300   -380.9894
434.3800   -381.1177
436.4200   -392.7013
438.4600   -388.8610
440.5000   -359.2271
442.5400   -297.1001
444.5900   -251.3498
446.6300   -235.0503
448.6700   -230.0883
450.7100   -211.4432
452.7500   -200.2817
454.7900   -201.6819
456.8400   -195.4654
458.8800   -211.8353
460.9200   -232.1459
462.9600   -263.8912
465.0000   -272.1171
467.0500   -266.2727
469.0900   -287.8080
471.1300   -388.9188
473.1700   -527.8255
475.2100   -551.9756
477.2600   -549.4068
479.3000   -584.8293
481.3400   -611.3698
483.3800   -613.7802
485.4200   -605.7488
487.4700   -597.6924
489.5100   -609.7946
491.5500   -624.8647
493.5900   -635.4307
495.6300   -676.5351
497.6700   -721.5920
499.7200   -733.5027
501.7600   -749.7293
503.8000   -763.5564
505.8400   -768.8959
507.8800   -773.7045
509.9300   -779.0638
511.9700   -784.3784
514.0100   -784.2610
516.0500   -784.4189
518.0900   -766.3075
520.1400   -746.5294
522.1800   -757.0524
524.2200   -778.0438
526.2600   -753.4951
528.3000   -740.8852
530.3500   -792.4160
532.3900   -823.7231
534.4300   -840.7830
536.4700   -865.3825
538.5100   -880.1557
540.5500   -863.2571
542.6000   -866.0537
544.6400   -872.1320
546.6800   -874.5288
548.7200   -879.7016
550.7600   -869.7909
552.8100   -841.3479
554.8500   -716.9568
556.8900   -487.3411
558.9300   -379.9067
560.9700   -371.0918
563.0200   -407.6098
565.0600   -433.0701
567.1000   -445.6314
569.1400   -446.9496
571.1800   -451.7372
573.2300   -468.6271
575.2700   -459.0295
577.3100   -436.6219
579.3500   -399.8046
581.3900   -340.9650
583.4300   -289.3628
585.4800   -278.2950
587.5200   -302.3315
589.5600   -283.3900
591.6000   -234.4257
593.6400   -222.1639
595.6900   -231.0721
597.7300   -200.9600
599.7700   -195.5601
601.8100   -244.2667
603.8500   -306.4331
605.9000   -331.1269
607.9400   -335.7092
609.9800   -343.7770
612.0200   -344.5995
614.0600   -318.3338
616.1100   -312.1951
618.1500   -369.7212
620.1900   -404.6608
622.2300   -412.7070
624.2700   -415.0329
626.3100   -392.3912
628.3600   -376.4779
630.4000   -352.3118
632.4400   -340.2213
634.4800   -345.0547
636.5200   -345.2077
638.5700   -350.0448
640.6100   -357.6575
642.6500   -362.3528
644.6900   -362.2653
646.7300   -363.5473
648.7800   -376.3707
650.8200   -408.4668
652.8600   -431.3642
654.9000   -444.2568
656.9400   -445.9690
658.9900   -427.2103
661.0300   -395.2076
663.0700   -374.1334
665.1100   -373.3945
667.1500   -360.0565
669.1900   -342.9225
671.2400   -315.4451
673.2800   -303.7477
675.3200   -291.9381
677.3600   -275.2771
679.4000   -270.7984
681.4500   -250.1049
683.4900   -251.7333
685.5300   -254.7204
687.5700   -252.3606
689.6100   -258.6967
691.6600   -271.5171
693.7000   -251.2548
695.7400   -223.7996
697.7800   -236.9621
699.8200   -237.0909
701.8700   -172.9996
703.9100   -114.7489
705.9500   -86.1006
707.9900   -58.0291
710.0300   -37.5028
712.0700   -25.9318
714.1200   -22.0473
716.1600   -41.7053
718.2000   -67.3996
720.2400   -94.9208
722.2800   -107.8825
724.3300   -107.3994
726.3700   -124.5064
728.4100   -133.1223
730.4500   -134.3854
732.4900   -132.5008
734.5400   -122.4171
736.5800   -106.6183
738.6200   -106.2066
740.6600   -103.7776
742.7000   -104.8589
744.7500   -112.8425
746.7900   -127.9090
748.8300   -143.3586
750.8700   -143.7928
752.9100   -149.9984
754.9500   -149.6007
757.0000   -152.9497
759.0400   -156.3504
761.0800   -171.0620
763.1200   -159.3960
765.1600   -142.1421
767.2100   -137.7552
769.2500   -136.6253
771.2900   -144.4800
773.3300   -144.9568
775.3700   -165.4418
777.4200   -202.4080
779.4600   -221.2788
781.5000   -212.1370
783.5400   -216.4985
785.5800   -218.5926
787.6300   -205.4582
789.6700   -201.7771
791.7100   -207.5132
793.7500   -204.3446
795.7900   -202.2828
797.8300   -236.4100
799.8800   -279.5849
801.9200   -264.8790
803.9600   -228.2808
806.0000   -215.9249
808.0400   -217.6315
810.0900   -215.5514
812.1300   -214.0476
814.1700   -209.6580
816.2100   -206.7970
818.2500   -192.7331
820.3000   -192.8526
822.3400   -200.2511
824.3800   -197.7197
826.4200   -202.4029
828.4600   -207.5568
830.5100   -202.7873
832.5500   -209.1187
834.5900   -205.9243
836.6300   -209.2428
838.6700   -222.7656
840.7100   -250.2931
842.7600   -265.9736
844.8000   -238.8716
846.8400   -225.7143
848.8800   -215.8557
850.9200   -227.9163
852.9700   -241.8297
855.0100   -230.4410
857.0500   -214.7235
859.0900   -236.7111
861.1300   -256.9211
863.1800   -262.9055
865.2200   -270.2283
867.2600   -272.2950
869.3000   -240.7416
871.3400   -198.5205
873.3900   -171.2501
875.4300   -196.7344
877.4700   -240.2619
879.5100   -225.0853
881.5500   -211.4300
883.5900   -270.2330
885.6400   -319.6196
887.6800   -349.3486
889.7200   -354.2051
891.7600   -323.7100
893.8000   -280.6579
895.8500   -245.3827
897.8900   -210.9674
899.9300   -187.6592
901.9700   -208.9380
904.0100   -212.7484
906.0600   -199.6144
908.1000   -203.1453
910.1400   -221.4727
912.1800   -275.1631
914.2200   -345.7606
916.2700   -380.2395
918.3100   -371.8259
920.3500   -361.9080
922.3900   -353.8736
924.4300   -343.4544
926.4700   -326.1111
928.5200   -280.7245
930.5600   -292.0456
932.6000   -349.7482
934.6400   -358.7412
936.6800   -369.2022
938.7300   -396.1311
940.7700   -407.7271
942.8100   -404.1436
944.8500   -394.9722
946.8900   -370.3736
948.9400   -352.0259
950.9800   -318.5385
953.0200   -275.9569
955.0600   -292.2234
957.1000   -339.9412
959.1500   -383.8590
961.1900   -415.4019
963.2300   -419.5546
965.2700   -421.9238
967.3100   -357.4929
969.3500   -232.4058
971.4000   -133.8950
973.4400   -98.5388
975.4800   -100.8068
977.5200   -138.2511
979.5600   -227.3359
981.6100   -301.1354
983.6500   -342.9638
985.6900   -361.6868
987.7300   -394.1232
989.7700   -391.9113
991.8200   -358.7816
993.8600   -344.3805
995.9000   -374.0948
997.9400   -395.7143
999.9800   -375.3235
1002.0300   -363.3235
1004.0700   -419.1162
1006.1100   -468.8134
1008.1500   -502.3511
1010.1900   -512.0598
1012.2300   -512.1286
1014.2800   -493.6595
1016.3200   -453.0770
1018.3600   -420.7292
1020.4000   -412.9459
1022.4400   -394.0523
1024.4900   -349.5726
1026.5300   -302.2809
1028.5700   -341.9787
1030.6100   -365.4867
1032.6500   -350.4578
1034.7000   -365.6579
1036.7400   -393.9373
1038.7800   -362.8500
1040.8200   -320.2795
1042.8600   -309.7805
1044.9100   -294.2249
1046.9500   -300.5212
1048.9900   -294.0061
1051.0300   -291.8474
1053.0700   -351.5467
1055.1100   -399.0284
1057.1600   -450.5110
1059.2000   -488.2392
1061.2400   -503.6302
1063.2800   -516.0087
1065.3200   -502.4947
1067.3700   -463.5205
1069.4100   -441.9838
1071.4500   -438.1352
1073.4900   -384.6004
1075.5300   -357.3294
1077.5800   -384.3871
1079.6200   -371.1544
1081.6600   -351.4631
1083.7000   -365.3626
1085.7400   -397.6793
1087.7900   -393.9267
1089.8300   -362.4331
1091.8700   -353.8102
1093.9100   -340.5750
1095.9500   -337.7292
1097.9900   -298.8940
1100.0400   -298.7831
1102.0800   -348.7242
1104.1200   -374.6463
1106.1600   -381.7754
1108.2000   -396.8785
1110.2500   -398.7037
1112.2900   -376.0113
1114.3300   -367.1952
1116.3700   -372.4605
1118.4100   -392.2948
1120.4600   -370.6792
1122.5000   -346.1066
1124.5400   -370.4580
1126.5800   -411.6688
1128.6200   -457.4499
1130.6700   -489.2552
1132.7100   -505.1205
1134.7500   -486.4838
1136.7900   -426.8672
1138.8300   -409.2674
1140.8700   -406.7905
1142.9200   -386.1132
1144.9600   -365.2589
1147.0000   -317.8734
1149.0400   -317.2608
1151.0800   -345.3418
1153.1300   -369.7317
1155.1700   -396.2329
1157.2100   -425.3058
1159.2500   -425.1126
1161.2900   -392.1271
1163.3400   -369.9031
1165.3800   -353.6032
1167.4200   -337.4265
1169.4600   -310.5902
1171.5000   -272.7727
1173.5500   -299.1457
1175.5900   -319.4877
1177.6300   -331.7049
1179.6700   -356.3003
1181.7100   -383.4554
1183.7500   -386.9049
1185.8000   -358.2971
1187.8400   -326.7690
1189.8800   -321.3652
1191.9200   -323.0477
1193.9600   -281.7514
1196.0100   -266.8788
1198.0500   -297.3655
1200.0900   -315.2886
1202.1300   -339.0511
1204.1700   -378.9683
1206.2200   -421.9637
1208.2600   -405.7038
1210.3000   -359.7365
1212.3400   -339.5225
1214.3800   -333.9794
1216.4300   -318.2854
1218.4700   -281.3737
1220.5100   -273.1054
1222.5500   -319.9941
1224.5900   -357.6146
1226.6300   -365.7188
1228.6800   -381.9806
1230.7200   -406.6593
1232.7600   -391.2791
1234.8000   -360.7742
1236.8400   -334.2007
1238.8900   -312.4364
1240.9300   -297.9707
1242.9700   -260.9529
1245.0100   -250.9190
1247.0500   -306.4419
1249.1000   -347.3862
1251.1400   -372.6909
1253.1800   -394.4422
1255.2200   -392.3173
1257.2600   -355.6625
1259.3100   -345.2837
1261.3500   -356.5283
1263.3900   -364.5143
1265.4300   -338.9878
1267.4700   -316.0150
1269.5100   -332.4545
1271.5600   -364.4188
1273.6000   -388.9460
1275.6400   -402.9957
1277.6800   -424.0459
1279.7200   -427.0738
1281.7700   -385.2064
1283.8100   -363.1241
1285.8500   -361.2202
1287.8900   -348.2963
1289.9300   -328.6377
1291.9800   -280.1647
1294.0200   -281.6789
1296.0600   -344.2691
1298.1000   -379.4955
1300.1400   -383.7293
1302.1900   -402.8218
1304.2300   -394.2041
1306.2700   -364.4684
1308.3100   -372.1414
1310.3500   -378.3631
1312.3900   -373.3437
1314.4400   -346.7160
1316.4800   -322.2285
1318.5200   -334.7937
1320.5600   -364.8436
1322.6000   -368.0317
1324.6500   -384.8365
1326.6900   -430.3713
1328.7300   -457.3008
1330.7700   -420.2756
1332.8100   -380.6702
1334.8600   -361.5766
1336.9000   -339.9368
1338.9400   -305.4783
1340.9800   -233.1848
1343.0200   -205.7075
1345.0700   -243.4591
1347.1100   -287.1523
1349.1500   -339.0050
1351.1900   -405.0966
1353.2300   -413.9313
1355.2700   -356.8323
1357.3200   -272.2861
1359.3600   -188.4688
1361.4000   -161.6776
1363.4400   -153.1889
1365.4800   -142.3625
1367.5300   -133.1732
1369.5700   -124.9528
1371.6100   -134.7172
1373.6500   -166.4657
1375.6900   -228.3414
1377.7400   -280.2309
1379.7800   -274.3462
1381.8200   -213.1283
1383.8600   -176.4623
1385.9000   -206.1266
1387.9500   -231.0637
1389.9900   -216.3157
1392.0300   -221.3632
1394.0700   -234.7800
1396.1100   -239.6790
1398.1500   -267.2294
1400.2000   -318.2311
1402.2400   -326.5716
1404.2800   -298.1337
1406.3200   -249.4402
1408.3600   -201.0139
1410.4100   -191.6336
1412.4500   -218.8574
1414.4900   -245.1430
1416.5300   -245.9361
1418.5700   -206.1466
1420.6200   -166.2681
1422.6600   -184.0596
1424.7000   -270.4214
1426.7400   -381.1239
1428.7800   -392.1814
1430.8300   -364.0177
1432.8700   -335.2884
1434.9100   -329.5487
1436.9500   -336.8239
1438.9900   -343.6828
1441.0300   -352.7186
1443.0800   -403.5567
1445.1200   -427.5249
1447.1600   -422.2462
1449.2000   -409.1505
1451.2400   -420.6409
1453.2900   -428.3848
1455.3300   -427.3299
1457.3700   -425.7189
1459.4100   -401.2710
1461.4500   -380.7650
1463.5000   -370.7418
1465.5400   -380.5764
1467.5800   -415.1363
1469.6200   -413.6571
1471.6600   -372.0225
1473.7100   -337.9447
1475.7500   -286.1625
1477.7900   -243.6925
1479.8300   -223.0717
1481.8700   -205.5668
1483.9100   -231.9406
1485.9600   -258.9587
1488.0000   -253.3804
1490.0400   -191.3844
1492.0800   -162.8998
1494.1200   -156.5386
1496.1700   -161.5702
1498.2100   -165.9795
1500.2500   -175.0107
1502.2900   -179.8372
1504.3300   -173.8115
1506.3800   -167.3989
1508.4200   -181.3096
1510.4600   -232.9981
1512.5000   -270.4448
1514.5400   -291.8721
1516.5900   -274.0272
1518.6300   -240.4126
1520.6700   -237.0976
1522.7100   -208.6660
1524.7500   -137.1548
1526.7900   -91.9776
1528.8400   -89.2479
1530.8800   -101.8764
1532.9200   -146.4010
1534.9600   -227.7426
1537.0000   -292.9643
1539.0500   -298.0096
1541.0900   -288.1781
1543.1300   -315.2793
1545.1700   -341.9255
1547.2100   -334.5152
1549.2600   -314.6768
1551.3000   -332.0134
1553.3400   -331.7441
1555.3800   -285.5039
1557.4200   -288.9755
1559.4700   -329.1173
1561.5100   -356.5255
1563.5500   -442.7784
1565.5900   -520.5249
1567.6300   -524.9351
1569.6700   -525.5910
1571.7200   -550.9166
1573.7600   -573.6854
1575.8000   -584.2093
1577.8400   -569.5876
1579.8800   -539.5610
1581.9300   -513.2163
1583.9700   -507.2122
1586.0100   -510.4084
1588.0500   -556.8671
1590.0900   -595.7873
1592.1400   -535.1997
1594.1800   -466.5962
1596.2200   -497.5091
1598.2600   -522.9345
1600.3000   -504.6349
1602.3500   -505.5233
1604.3900   -531.5994
1606.4300   -607.1197
1608.4700   -638.4829
1610.5100   -655.6283
1612.5500   -680.1478
1614.6000   -670.0681
1616.6400   -648.5806
1618.6800   -602.6856
1620.7200   -543.7887
1622.7600   -529.8998
1624.8100   -454.9531
1626.8500   -393.3900
1628.8900   -401.5982
1630.9300   -435.0467
1632.9700   -461.6163
1635.0200   -461.6969
1637.0600   -461.0151
1639.1000   -456.2017
