#----------------------------------
# BOTDR
# DSTS: v.07.1
# Fri Oct 22 13:48:49 2021
#
# Channel No  = 0
# Partial   = 0
# Partial Start  = 0.00
# Partial End  = 5118.55
# Fibre Length    [m]   = 5118.55  0.00
# Fiber Delay    [m]   = 118.55
# Connection Point    [m]   = 198.64
# Rpt.period      [us]  = 65
# Pulse width     [ns]  = 40
# Frequency Start [MHz] = 10690.00
# Frequency End:  [MHz] = 10990.00
# Frequency Step: [MHz] = 5.00
# No.Averages:    [-]   = 12000
# Sampling Rate   [-]   = 2 (50.00MSs, spatial step = 2.00m)
# Input Range     [-]   = 2 (1V)
# Pulse Delay     [m]   = 100
# Post Pulse Data [m]   = 0
# Fiber Type      [-]   = CH4 Land
# Fiber  temperature [C] = 27.00
# Fiber  Bril Frequency  [MHz] = 10840.00
# Fiber  Strain Coefficient  [ue/MHz] = 18.9150
# Fiber Temperature Coefficient [C/MHz] = 0.9765
# Fiber Refractive Index = 1.4682
# Fiber Sigma = 0.2000
#
#----------------------------------
2509

-118.5500   10840.0000
-116.5500   10840.0000
-114.5500   10840.0000
-112.5500   10840.0000
-110.5500   10840.0000
-108.5500   10840.0000
-106.5500   10840.0000
-104.5500   10840.0000
-102.5500   10840.0000
-100.5500   10840.0000
-98.5500   10840.0000
-96.5500   10840.0000
-94.5500   10840.0000
-92.5500   10840.0000
-90.5500   10840.0000
-88.5500   10840.0000
-86.5500   10840.0000
-84.5500   10840.0000
-82.5500   10840.0000
-80.5500   10840.0000
-78.5500   10840.0000
-76.5500   10840.0000
-74.5500   10840.0000
-72.5500   10840.0000
-70.5500   10840.0000
-68.5500   10840.0000
-66.5500   10840.0000
-64.5500   10840.0000
-62.5500   10840.0000
-60.5500   10840.0000
-58.5500   10840.0000
-56.5500   10840.0000
-54.5500   10840.0000
-52.5500   10840.0000
-50.5500   10840.0000
-48.5500   10840.0000
-46.5500   10840.0000
-44.5500   10840.0000
-42.5500   10840.0000
-40.5500   10840.0000
-38.5500   10840.0000
-36.5500   10840.0000
-34.5500   10840.0000
-32.5500   10840.0000
-30.5500   10840.0000
-28.5500   10840.0000
-26.5500   10840.0000
-24.5500   10840.0000
-22.5500   10840.0000
-20.5500   10840.0000
-18.5500   10840.0000
-16.5500   10840.0000
-14.5500   10840.0000
-12.5500   10840.0000
-10.5500   10840.0000
-8.5500   10840.0000
-6.5500   10840.0000
-4.5500   10840.0000
-2.5500   10812.5614
-0.5500   10811.2009
1.4900   10810.4332
3.5300   10818.6038
5.5800   10830.0695
7.6200   10831.2523
9.6600   10832.2138
11.7000   10834.0966
13.7400   10836.3978
15.7900   10837.3831
17.8300   10837.5375
19.8700   10837.2055
21.9100   10836.8946
23.9500   10836.6322
25.9900   10836.2834
28.0400   10836.6711
30.0800   10837.4371
32.1200   10837.8066
34.1600   10838.4544
36.2000   10839.2938
38.2500   10840.0243
40.2900   10839.7985
42.3300   10839.3438
44.3700   10838.9692
46.4100   10838.8003
48.4600   10838.8643
50.5000   10838.7847
52.5400   10838.6813
54.5800   10838.3732
56.6200   10838.5591
58.6700   10838.1033
60.7100   10838.0938
62.7500   10837.7374
64.7900   10837.6215
66.8300   10837.9929
68.8700   10838.2738
70.9200   10838.0032
72.9600   10837.8297
75.0000   10837.9033
77.0400   10838.1483
79.0800   10837.8655
81.1300   10837.2530
83.1700   10835.5952
85.2100   10806.2018
87.2500   10759.8606
89.2900   10758.8995
91.3400   10795.4888
93.3800   10816.2613
95.4200   10816.7936
97.4600   10817.1571
99.5000   10817.7057
101.5500   10817.8304
103.5900   10817.4079
105.6300   10816.9974
107.6700   10817.2498
109.7100   10817.5787
111.7500   10817.4565
113.8000   10817.3741
115.8400   10817.7532
117.8800   10818.4270
119.9200   10819.2393
121.9600   10819.2980
124.0100   10819.1428
126.0500   10819.2216
128.0900   10819.6628
130.1300   10820.1249
132.1700   10820.6912
134.2200   10821.5071
136.2600   10821.2856
138.3000   10820.6290
140.3400   10820.1258
142.3800   10820.9307
144.4300   10823.5890
146.4700   10825.0141
148.5100   10825.1178
150.5500   10824.0484
152.5900   10822.3769
154.6300   10821.5591
156.6800   10821.4321
158.7200   10821.3508
160.7600   10821.9121
162.8000   10821.8727
164.8400   10821.5906
166.8900   10821.2861
168.9300   10822.5067
170.9700   10824.0449
173.0100   10824.9968
175.0500   10825.2983
177.1000   10825.6084
179.1400   10825.7490
181.1800   10826.2376
183.2200   10826.4278
185.2600   10826.4359
187.3100   10825.9715
189.3500   10825.3008
191.3900   10825.3055
193.4300   10826.2147
195.4700   10826.4928
197.5100   10826.3003
199.5600   10826.0944
201.6000   10826.1459
203.6400   10826.6887
205.6800   10826.9201
207.7200   10827.0741
209.7700   10826.6801
211.8100   10826.8772
213.8500   10826.9901
215.8900   10826.8079
217.9300   10827.3524
219.9800   10827.3735
222.0200   10826.5459
224.0600   10826.5536
226.1000   10826.9046
228.1400   10826.1939
230.1900   10825.1128
232.2300   10825.2718
234.2700   10825.5594
236.3100   10825.9356
238.3500   10826.9401
240.3900   10827.0131
242.4400   10826.2187
244.4800   10824.3306
246.5200   10822.6000
248.5600   10822.3764
250.6000   10823.2087
252.6500   10824.3570
254.6900   10824.6427
256.7300   10824.0275
258.7700   10823.4166
260.8100   10823.5315
262.8600   10823.8127
264.9000   10824.1896
266.9400   10824.2973
268.9800   10824.3091
271.0200   10824.8568
273.0700   10825.2805
275.1100   10825.6263
277.1500   10826.0553
279.1900   10826.2544
281.2300   10826.0220
283.2700   10825.7309
285.3200   10825.6178
287.3600   10825.4935
289.4000   10824.4802
291.4400   10824.0412
293.4800   10824.5390
295.5300   10824.3582
297.5700   10824.0550
299.6100   10824.0019
301.6500   10824.0344
303.6900   10824.4971
305.7400   10824.7122
307.7800   10824.5423
309.8200   10823.9772
311.8600   10822.9877
313.9000   10822.6485
315.9500   10823.1996
317.9900   10824.1799
320.0300   10824.9371
322.0700   10825.2158
324.1100   10825.2344
326.1500   10825.4765
328.2000   10825.8071
330.2400   10826.4811
332.2800   10826.6692
334.3200   10826.9654
336.3600   10826.6764
338.4100   10826.2089
340.4500   10826.6178
342.4900   10827.3258
344.5300   10828.0242
346.5700   10828.3558
348.6200   10827.8439
350.6600   10826.6058
352.7000   10826.1072
354.7400   10827.1942
356.7800   10828.4133
358.8300   10828.9890
360.8700   10828.6218
362.9100   10828.1070
364.9500   10827.6690
366.9900   10827.2814
369.0300   10827.3986
371.0800   10827.3149
373.1200   10827.0417
375.1600   10826.8998
377.2000   10826.6401
379.2400   10826.4177
381.2900   10825.9377
383.3300   10825.2889
385.3700   10825.0269
387.4100   10825.3453
389.4500   10825.6230
391.5000   10825.8116
393.5400   10825.6860
395.5800   10825.6024
397.6200   10825.7331
399.6600   10826.0854
401.7100   10826.2360
403.7500   10826.3661
405.7900   10826.6474
407.8300   10826.1655
409.8700   10826.2500
411.9100   10826.8310
413.9600   10827.2621
416.0000   10827.1747
418.0400   10826.9476
420.0800   10827.4061
422.1200   10827.4770
424.1700   10827.5613
426.2100   10827.8830
428.2500   10828.0607
430.2900   10828.1605
432.3300   10828.4761
434.3800   10828.7434
436.4200   10828.1110
438.4600   10828.1468
440.5000   10828.0583
442.5400   10827.5272
444.5900   10827.1132
446.6300   10827.2241
448.6700   10827.2475
450.7100   10827.4061
452.7500   10827.4604
454.7900   10827.8539
456.8400   10828.0819
458.8800   10827.5799
460.9200   10826.5418
462.9600   10825.9828
465.0000   10826.0518
467.0500   10826.0368
469.0900   10825.9389
471.1300   10826.6783
473.1700   10827.6394
475.2100   10828.5550
477.2600   10828.3123
479.3000   10826.8813
481.3400   10826.1087
483.3800   10826.6192
485.4200   10827.7586
487.4700   10828.1059
489.5100   10827.4327
491.5500   10827.4130
493.5900   10827.4877
495.6300   10827.6601
497.6700   10828.2644
499.7200   10828.3114
501.7600   10827.9788
503.8000   10826.9528
505.8400   10826.6516
507.8800   10826.9545
509.9300   10826.7848
511.9700   10826.6696
514.0100   10826.5054
516.0500   10826.5597
518.0900   10826.9921
520.1400   10827.3979
522.1800   10826.9788
524.2200   10826.5532
526.2600   10825.8398
528.3000   10825.1589
530.3500   10824.8202
532.3900   10824.8628
534.4300   10824.1256
536.4700   10823.3506
538.5100   10822.4887
540.5500   10821.9817
542.6000   10821.8276
544.6400   10822.0594
546.6800   10822.5067
548.7200   10822.4521
550.7600   10822.7684
552.8100   10825.5122
554.8500   10833.3677
556.8900   10842.4002
558.9300   10844.5512
560.9700   10843.5381
563.0200   10842.8597
565.0600   10842.0779
567.1000   10841.1759
569.1400   10841.6500
571.1800   10842.3334
573.2300   10841.9553
575.2700   10841.8612
577.3100   10842.6718
579.3500   10844.8371
581.3900   10846.4450
583.4300   10846.4698
585.4800   10846.4490
587.5200   10846.2542
589.5600   10846.7221
591.6000   10847.4804
593.6400   10847.5947
595.6900   10847.4248
597.7300   10847.2943
599.7700   10846.9864
601.8100   10846.9549
603.8500   10846.7581
605.9000   10846.4635
607.9400   10846.2556
609.9800   10846.2446
612.0200   10846.1964
614.0600   10846.0355
616.1100   10846.2839
618.1500   10846.3909
620.1900   10845.9285
622.2300   10845.6564
624.2700   10845.7886
626.3100   10846.3704
628.3600   10846.6975
630.4000   10846.9915
632.4400   10847.4681
634.4800   10848.1295
636.5200   10847.9770
638.5700   10847.4931
640.6100   10847.4050
642.6500   10847.1238
644.6900   10846.8599
646.7300   10846.3689
648.7800   10846.0994
650.8200   10846.5227
652.8600   10846.5692
654.9000   10845.4493
656.9400   10844.6117
658.9900   10845.0403
661.0300   10845.6231
663.0700   10846.6860
665.1100   10847.7059
667.1500   10847.3752
669.1900   10847.2144
671.2400   10848.0877
673.2800   10848.1791
675.3200   10847.3686
677.3600   10845.7297
679.4000   10845.9441
681.4500   10847.2117
683.4900   10847.2458
685.5300   10847.2311
687.5700   10847.1467
689.6100   10847.2526
691.6600   10847.8088
693.7000   10848.2928
695.7400   10848.4232
697.7800   10846.8038
699.8200   10847.2946
701.8700   10850.9632
703.9100   10853.9877
705.9500   10855.5359
707.9900   10857.0896
710.0300   10857.7526
712.0700   10857.3344
714.1200   10856.3806
716.1600   10855.4736
718.2000   10855.1359
720.2400   10854.9271
722.2800   10854.6524
724.3300   10854.7655
726.3700   10854.7509
728.4100   10853.8479
730.4500   10853.5835
732.4900   10854.2874
734.5400   10854.6493
736.5800   10855.0337
738.6200   10855.6195
740.6600   10855.1896
742.7000   10854.6903
744.7500   10854.4260
746.7900   10854.3975
748.8300   10854.4616
750.8700   10854.6090
752.9100   10854.5850
754.9500   10854.8174
757.0000   10854.8670
759.0400   10853.6689
761.0800   10852.9830
763.1200   10853.4240
765.1600   10853.3496
767.2100   10852.8717
769.2500   10852.4577
771.2900   10852.2455
773.3300   10851.5283
775.3700   10851.0197
777.4200   10850.4249
779.4600   10850.4224
781.5000   10850.5098
783.5400   10850.3455
785.5800   10850.0308
787.6300   10850.4906
789.6700   10850.3710
791.7100   10850.0036
793.7500   10849.2972
795.7900   10848.8282
797.8300   10847.4887
799.8800   10846.7586
801.9200   10848.4336
803.9600   10849.8260
806.0000   10849.6792
808.0400   10849.9590
810.0900   10850.0134
812.1300   10850.0107
814.1700   10850.1503
816.2100   10850.6512
818.2500   10850.8793
820.3000   10851.3649
822.3400   10851.7780
824.3800   10851.7925
826.4200   10851.9289
828.4600   10852.2446
830.5100   10851.6045
832.5500   10851.3068
834.5900   10851.2927
836.6300   10851.0008
838.6700   10850.2082
840.7100   10848.7757
842.7600   10848.6524
844.8000   10849.7101
846.8400   10849.9219
848.8800   10850.2083
850.9200   10850.0957
852.9700   10849.5874
855.0100   10849.7254
857.0500   10850.0295
859.0900   10849.1590
861.1300   10848.3178
863.1800   10847.6122
865.2200   10846.9447
867.2600   10847.0981
869.3000   10847.7972
871.3400   10848.1481
873.3900   10847.2293
875.4300   10845.9722
877.4700   10845.2197
879.5100   10845.6744
881.5500   10847.2205
883.5900   10848.6442
885.6400   10850.0072
887.6800   10850.1015
889.7200   10849.7367
891.7600   10849.6178
893.8000   10849.3948
895.8500   10849.3761
897.8900   10849.2338
899.9300   10848.6986
901.9700   10847.9064
904.0100   10847.4853
906.0600   10847.9345
908.1000   10848.0795
910.1400   10847.6764
912.1800   10846.8915
914.2200   10845.6207
916.2700   10845.3089
918.3100   10845.8565
920.3500   10846.3647
922.3900   10846.0864
924.4300   10845.5185
926.4700   10845.2737
928.5200   10845.0091
930.5600   10845.3831
932.6000   10845.5751
934.6400   10845.7863
936.6800   10845.9726
938.7300   10845.9107
940.7700   10845.2808
942.8100   10845.3959
944.8500   10845.4462
946.8900   10845.8813
948.9400   10846.3393
950.9800   10846.3893
953.0200   10846.3692
955.0600   10846.2306
957.1000   10845.3127
959.1500   10844.5452
961.1900   10844.5243
963.2300   10844.2759
965.2700   10844.3823
967.3100   10846.6600
969.3500   10848.8721
971.4000   10849.9352
973.4400   10849.9841
975.4800   10849.4381
977.5200   10848.9956
979.5600   10848.7894
981.6100   10848.1804
983.6500   10847.1509
985.6900   10846.5393
987.7300   10845.2904
989.7700   10845.2902
991.8200   10847.0879
993.8600   10847.4755
995.9000   10846.2707
997.9400   10845.0416
999.9800   10844.0418
1002.0300   10843.3158
1004.0700   10842.1246
1006.1100   10841.8168
1008.1500   10842.0183
1010.1900   10841.8580
1012.2300   10841.2330
1014.2800   10842.4691
1016.3200   10844.9048
1018.3600   10846.1334
1020.4000   10846.6575
1022.4400   10847.2524
1024.4900   10847.4451
1026.5300   10847.3996
1028.5700   10847.7538
1030.6100   10848.6517
1032.6500   10849.1254
1034.7000   10848.4497
1036.7400   10847.3625
1038.7800   10848.3006
1040.8200   10849.7163
1042.8600   10850.3154
1044.9100   10850.6471
1046.9500   10850.1388
1048.9900   10849.4452
1051.0300   10848.4270
1053.0700   10847.3889
1055.1100   10846.3922
1057.1600   10843.5099
1059.2000   10840.8832
1061.2400   10839.9778
1063.2800   10840.1899
1065.3200   10840.7159
1067.3700   10842.1329
1069.4100   10843.3305
1071.4500   10843.8495
1073.4900   10844.9286
1075.5300   10845.7074
1077.5800   10846.2763
1079.6200   10846.7911
1081.6600   10846.8381
1083.7000   10845.3418
1085.7400   10844.1500
1087.7900   10844.9886
1089.8300   10845.8797
1091.8700   10846.5721
1093.9100   10847.0260
1095.9500   10846.8821
1097.9900   10847.3212
1100.0400   10847.5645
1102.0800   10848.2592
1104.1200   10847.8268
1106.1600   10847.5264
1108.2000   10846.4597
1110.2500   10846.1676
1112.2900   10848.0812
1114.3300   10848.9217
1116.3700   10848.8019
1118.4100   10848.6294
1120.4600   10847.5637
1122.5000   10846.6130
1124.5400   10846.4173
1126.5800   10845.8232
1128.6200   10843.8111
1130.6700   10842.0614
1132.7100   10842.0077
1134.7500   10844.3320
1136.7900   10847.4460
1138.8300   10848.2228
1140.8700   10848.0480
1142.9200   10848.5753
1144.9600   10849.1527
1147.0000   10849.1096
1149.0400   10849.0590
1151.0800   10848.7977
1153.1300   10848.0015
1155.1700   10847.3416
1157.2100   10846.2837
1159.2500   10846.5468
1161.2900   10848.2471
1163.3400   10848.7641
1165.3800   10848.4923
1167.4200   10849.5042
1169.4600   10850.3746
1171.5000   10850.4460
1173.5500   10850.6333
1175.5900   10850.6907
1177.6300   10850.3136
1179.6700   10849.2657
1181.7100   10847.2080
1183.7500   10847.3282
1185.8000   10849.5118
1187.8400   10850.7641
1189.8800   10851.4082
1191.9200   10851.8567
1193.9600   10852.4147
1196.0100   10852.4940
1198.0500   10852.3906
1200.0900   10852.3953
1202.1300   10851.9137
1204.1700   10850.0061
1206.2200   10847.5826
1208.2600   10848.1724
1210.3000   10850.3691
1212.3400   10851.7848
1214.3800   10851.7973
1216.4300   10851.2778
1218.4700   10851.1969
1220.5100   10851.3391
1222.5500   10851.2126
1224.5900   10851.1059
1226.6300   10850.4542
1228.6800   10848.2407
1230.7200   10846.6686
1232.7600   10847.6649
1234.8000   10848.7161
1236.8400   10849.0209
1238.8900   10849.7182
1240.9300   10850.7183
1242.9700   10851.3731
1245.0100   10851.3992
1247.0500   10850.9635
1249.1000   10850.0238
1251.1400   10848.5869
1253.1800   10846.7387
1255.2200   10846.5984
1257.2600   10848.6334
1259.3100   10849.3453
1261.3500   10849.0472
1263.3900   10849.1035
1265.4300   10848.8046
1267.4700   10848.8981
1269.5100   10848.4157
1271.5600   10847.5828
1273.6000   10846.7345
1275.6400   10845.7654
1277.6800   10844.6954
1279.7200   10845.1792
1281.7700   10847.8611
1283.8100   10848.9053
1285.8500   10849.0770
1287.8900   10849.2397
1289.9300   10849.2718
1291.9800   10849.0391
1294.0200   10848.8533
1296.0600   10848.6610
1298.1000   10848.2447
1300.1400   10847.5337
1302.1900   10846.6166
1304.2300   10847.5482
1306.2700   10849.6782
1308.3100   10850.7326
1310.3500   10850.8315
1312.3900   10850.9390
1314.4400   10850.9071
1316.4800   10851.2873
1318.5200   10850.9344
1320.5600   10850.5364
1322.6000   10850.2270
1324.6500   10849.3771
1326.6900   10847.0855
1328.7300   10846.2343
1330.7700   10847.8273
1332.8100   10848.8059
1334.8600   10849.5750
1336.9000   10850.9653
1338.9400   10852.0025
1340.9800   10852.4438
1343.0200   10852.2613
1345.0700   10851.8894
1347.1100   10851.0946
1349.1500   10849.3558
1351.1900   10847.2911
1353.2300   10847.7134
1355.2700   10849.7403
1357.3200   10850.9567
1359.3600   10851.1146
1361.4000   10850.4363
1363.4400   10850.7433
1365.4800   10851.0483
1367.5300   10851.2711
1369.5700   10851.5017
1371.6100   10850.7675
1373.6500   10848.4190
1375.6900   10845.2560
1377.7400   10844.1137
1379.7800   10846.1805
1381.8200   10849.5413
1383.8600   10850.9244
1385.9000   10851.5251
1387.9500   10851.5182
1389.9900   10850.8582
1392.0300   10850.6974
1394.0700   10849.1866
1396.1100   10848.2657
1398.1500   10847.7514
1400.2000   10846.5832
1402.2400   10847.8557
1404.2800   10849.7794
1406.3200   10850.6349
1408.3600   10850.7988
1410.4100   10850.9048
1412.4500   10851.3575
1414.4900   10851.0358
1416.5300   10850.0423
1418.5700   10850.2550
1420.6200   10850.5088
1422.6600   10849.5197
1424.7000   10846.6552
1426.7400   10844.5125
1428.7800   10845.6233
1430.8300   10847.0561
1432.8700   10847.7912
1434.9100   10848.0992
1436.9500   10847.3836
1438.9900   10847.3862
1441.0300   10846.5015
1443.0800   10844.7081
1445.1200   10843.1085
1447.1600   10842.2988
1449.2000   10842.1270
1451.2400   10841.3362
1453.2900   10840.6784
1455.3300   10840.9250
1457.3700   10842.0483
1459.4100   10843.9360
1461.4500   10845.0795
1463.5000   10844.4740
1465.5400   10843.9863
1467.5800   10844.1841
1469.6200   10845.2703
1471.6600   10847.6460
1473.7100   10848.6736
1475.7500   10848.2937
1477.7900   10847.4673
1479.8300   10846.7518
1481.8700   10846.5027
1483.9100   10846.6216
1485.9600   10845.7539
1488.0000   10844.7043
1490.0400   10844.8531
1492.0800   10846.3281
1494.1200   10847.4914
1496.1700   10848.6616
1498.2100   10849.3054
1500.2500   10849.5039
1502.2900   10849.2727
1504.3300   10848.3722
1506.3800   10848.1443
1508.4200   10848.5053
1510.4600   10849.0846
1512.5000   10849.6329
1514.5400   10849.8352
1516.5900   10850.0311
1518.6300   10849.0646
1520.6700   10846.9604
1522.7100   10846.3588
1524.7500   10847.8398
1526.7900   10849.3330
1528.8400   10850.0795
1530.8800   10849.9262
1532.9200   10849.0994
1534.9600   10848.7287
1537.0000   10848.6563
1539.0500   10849.1059
1541.0900   10850.1502
1543.1300   10850.5824
1545.1700   10851.0392
1547.2100   10851.4696
