#----------------------------------
# BOTDR
# DSTS: v.07.1
# Fri Oct 22 13:50:52 2021
#
# Channel No  = 2
# Partial   = 0
# Partial Start  = 0.00
# Partial End  = 5118.55
# Fibre Length    [m]   = 5118.55  0.00
# Fiber Delay    [m]   = 118.55
# Connection Point    [m]   = 198.64
# Rpt.period      [us]  = 65
# Pulse width     [ns]  = 40
# Frequency Start [MHz] = 10690.00
# Frequency End:  [MHz] = 10990.00
# Frequency Step: [MHz] = 5.00
# No.Averages:    [-]   = 12000
# Sampling Rate   [-]   = 2 (50.00MSs, spatial step = 2.00m)
# Input Range     [-]   = 2 (1V)
# Pulse Delay     [m]   = 100
# Post Pulse Data [m]   = 0
# Fiber Type      [-]   = CH4 Land
# Fiber  temperature [C] = 27.00
# Fiber  Bril Frequency  [MHz] = 10840.00
# Fiber  Strain Coefficient  [ue/MHz] = 18.9150
# Fiber Temperature Coefficient [C/MHz] = 0.9765
# Fiber Refractive Index = 1.4682
# Fiber Sigma = 0.2000
#
#----------------------------------
2509

-118.5500   0.0000
-116.5500   0.0000
-114.5500   0.0000
-112.5500   0.0000
-110.5500   0.0000
-108.5500   0.0000
-106.5500   0.0000
-104.5500   0.0000
-102.5500   0.0000
-100.5500   0.0000
-98.5500   0.0000
-96.5500   0.0000
-94.5500   0.0000
-92.5500   0.0000
-90.5500   0.0000
-88.5500   0.0000
-86.5500   0.0000
-84.5500   0.0000
-82.5500   0.0000
-80.5500   0.0000
-78.5500   0.0000
-76.5500   0.0000
-74.5500   0.0000
-72.5500   0.0000
-70.5500   0.0000
-68.5500   0.0000
-66.5500   0.0000
-64.5500   0.0000
-62.5500   0.0000
-60.5500   0.0000
-58.5500   0.0000
-56.5500   0.0000
-54.5500   0.0000
-52.5500   0.0000
-50.5500   0.0000
-48.5500   0.0000
-46.5500   0.0000
-44.5500   0.0000
-42.5500   0.0000
-40.5500   0.0000
-38.5500   0.0000
-36.5500   0.0000
-34.5500   0.0000
-32.5500   0.0000
-30.5500   0.0000
-28.5500   0.0000
-26.5500   0.0000
-24.5500   0.0000
-22.5500   0.0000
-20.5500   0.0000
-18.5500   0.0000
-16.5500   0.0000
-14.5500   0.0000
-12.5500   0.0000
-10.5500   0.0000
-8.5500   0.0000
-6.5500   0.0000
-4.5500   0.0000
-2.5500   -81.8708
-0.5500   -142.6969
1.4900   -165.3925
3.5300   708.8203
5.5800   1459.0146
7.6200   1117.1015
9.6600   534.5203
11.7000   536.8838
13.7400   568.6368
15.7900   581.3222
17.8300   582.0597
19.8700   587.6887
21.9100   589.7731
23.9500   582.9884
25.9900   575.2834
28.0400   576.3397
30.0800   582.3564
32.1200   583.1662
34.1600   580.5015
36.2000   587.8219
38.2500   604.8121
40.2900   607.7421
42.3300   600.8758
44.3700   582.4238
46.4100   569.1720
48.4600   547.9480
50.5000   542.4007
52.5400   553.8535
54.5800   553.0953
56.6200   560.5480
58.6700   536.5349
60.7100   488.5953
62.7500   455.0942
64.7900   451.2178
66.8300   469.5166
68.8700   506.1221
70.9200   512.0928
72.9600   507.0760
75.0000   519.7641
77.0400   523.6194
79.0800   512.4962
81.1300   502.0683
83.1700   482.5978
85.2100   420.0858
87.2500   -1362.1675
89.2900   -1825.7070
91.3400   -1170.9312
93.3800   -617.1586
95.4200   -639.4200
97.4600   -621.8030
99.5000   -613.9747
101.5500   -611.7895
103.5900   -602.8708
105.6300   -599.3358
107.6700   -595.1810
109.7100   -594.4767
111.7500   -596.9195
113.8000   -592.0812
115.8400   -580.5344
117.8800   -576.2683
119.9200   -571.4792
121.9600   -558.6527
124.0100   -552.6913
126.0500   -547.1428
128.0900   -540.2853
130.1300   -528.4419
132.1700   -529.7841
134.2200   -538.3217
136.2600   -538.5102
138.3000   -525.3265
140.3400   -519.6959
142.3800   -520.4905
144.4300   -493.2356
146.4700   -461.3217
148.5100   -459.9564
150.5500   -452.8443
152.5900   -444.8321
154.6300   -435.6182
156.6800   -460.2996
158.7200   -484.8713
160.7600   -473.6176
162.8000   -437.5885
164.8400   -444.6574
166.8900   -479.0853
168.9300   -501.4758
170.9700   -481.8816
173.0100   -420.4230
175.0500   -350.9223
177.1000   -336.8796
179.1400   -378.5782
181.1800   -434.1233
183.2200   -450.1446
185.2600   -411.6808
187.3100   -389.1312
189.3500   -421.5596
191.3900   -425.1504
193.4300   -392.5119
195.4700   -364.9156
197.5100   -378.9477
199.5600   -420.6243
201.6000   -431.7892
203.6400   -394.4550
205.6800   -394.4527
207.7200   -447.1359
209.7700   -480.3983
211.8100   -491.9242
213.8500   -491.2980
215.8900   -480.2437
217.9300   -478.3500
219.9800   -482.7775
222.0200   -500.6477
224.0600   -493.4089
226.1000   -463.1980
228.1400   -429.3310
230.1900   -432.3900
232.2300   -461.7907
234.2700   -478.9626
236.3100   -484.0772
238.3500   -470.8030
240.3900   -463.1153
242.4400   -462.7000
244.4800   -480.6028
246.5200   -505.2465
248.5600   -517.9739
250.6000   -507.7569
252.6500   -457.7676
254.6900   -442.0225
256.7300   -493.8088
258.7700   -525.8374
260.8100   -527.9713
262.8600   -526.0184
264.9000   -518.2601
266.9400   -499.7828
268.9800   -483.2040
271.0200   -489.7702
273.0700   -469.6174
275.1100   -432.4118
277.1500   -385.5167
279.1900   -358.7447
281.2300   -344.0940
283.2700   -344.3054
285.3200   -348.5706
287.3600   -358.7377
289.4000   -368.3682
291.4400   -377.7354
293.4800   -377.6841
295.5300   -384.7348
297.5700   -376.7690
299.6100   -364.7284
301.6500   -360.3538
303.6900   -362.2625
305.7400   -363.8189
307.7800   -363.6369
309.8200   -369.8076
311.8600   -379.8023
313.9000   -394.5515
315.9500   -402.9749
317.9900   -408.5573
320.0300   -418.9845
322.0700   -411.5199
324.1100   -396.6646
326.1500   -384.1383
328.2000   -392.6471
330.2400   -399.5461
332.2800   -388.5055
334.3200   -368.1380
336.3600   -370.1502
338.4100   -368.8625
340.4500   -368.4419
342.4900   -359.1575
344.5300   -347.2800
346.5700   -338.3868
348.6200   -330.2961
350.6600   -330.8392
352.7000   -326.2235
354.7400   -311.2840
356.7800   -297.5794
358.8300   -294.0741
360.8700   -301.5543
362.9100   -332.7923
364.9500   -361.1153
366.9900   -378.3054
369.0300   -404.3281
371.0800   -427.1568
373.1200   -438.3999
375.1600   -432.9586
377.2000   -412.0164
379.2400   -409.9104
381.2900   -436.3933
383.3300   -447.4186
385.3700   -454.1229
387.4100   -470.7219
389.4500   -477.7060
391.5000   -478.3097
393.5400   -479.7419
395.5800   -467.5677
397.6200   -453.6876
399.6600   -466.0186
401.7100   -489.0421
403.7500   -488.6735
405.7900   -471.6949
407.8300   -449.3004
409.8700   -434.6248
411.9100   -453.4748
413.9600   -465.7418
416.0000   -466.1920
418.0400   -463.4176
420.0800   -451.9317
422.1200   -441.4655
424.1700   -444.6610
426.2100   -447.4782
428.2500   -447.2954
430.2900   -430.4925
432.3300   -423.2996
434.3800   -429.0891
436.4200   -428.2191
438.4600   -425.4890
440.5000   -399.7333
442.5400   -353.5502
444.5900   -312.9399
446.6300   -299.0627
448.6700   -291.4697
450.7100   -279.6425
452.7500   -284.3807
454.7900   -283.2286
456.8400   -270.4680
458.8800   -277.4326
460.9200   -289.6915
462.9600   -297.0839
465.0000   -299.6969
467.0500   -305.6128
469.0900   -324.4520
471.1300   -426.9361
473.1700   -577.6746
475.2100   -624.5118
477.2600   -615.7240
479.3000   -635.5187
481.3400   -667.1720
483.3800   -693.1554
485.4200   -698.5478
487.4700   -680.9261
489.5100   -678.7692
491.5500   -682.8585
493.5900   -707.1119
495.6300   -762.1852
497.6700   -794.1445
499.7200   -807.9279
501.7600   -821.6617
503.8000   -818.5285
505.8400   -807.0829
507.8800   -809.0949
509.9300   -825.3631
511.9700   -844.7748
514.0100   -856.6416
516.0500   -850.1726
518.0900   -829.2306
520.1400   -813.5524
522.1800   -821.5155
524.2200   -818.3148
526.2600   -786.1893
528.3000   -777.3961
530.3500   -816.7365
532.3900   -835.3855
534.4300   -864.1438
536.4700   -880.1610
538.5100   -885.2526
540.5500   -869.6886
542.6000   -884.5523
544.6400   -896.4473
546.6800   -897.3264
548.7200   -905.2024
550.7600   -896.9343
552.8100   -875.3134
554.8500   -725.8687
556.8900   -478.8018
558.9300   -388.8318
560.9700   -373.0636
563.0200   -403.5080
565.0600   -430.1534
567.1000   -442.2148
569.1400   -431.1867
571.1800   -437.6439
573.2300   -449.2462
575.2700   -439.1075
577.3100   -419.1159
579.3500   -400.9823
581.3900   -382.0655
583.4300   -346.6558
585.4800   -333.9031
587.5200   -351.7640
589.5600   -331.5382
591.6000   -287.4729
593.6400   -288.0414
595.6900   -292.5182
597.7300   -255.0535
599.7700   -252.7378
601.8100   -301.9319
603.8500   -353.8552
605.9000   -368.2802
607.9400   -371.5995
609.9800   -369.3837
612.0200   -380.4421
614.0600   -360.6477
616.1100   -357.0280
618.1500   -414.2058
620.1900   -458.8244
622.2300   -472.3375
624.2700   -459.0680
626.3100   -443.7056
628.3600   -431.0504
630.4000   -421.4634
632.4400   -403.9836
634.4800   -409.7651
636.5200   -419.4653
638.5700   -425.5791
640.6100   -431.2569
642.6500   -440.2844
644.6900   -437.4161
646.7300   -437.0532
648.7800   -457.2461
650.8200   -456.6242
652.8600   -442.3299
654.9000   -444.8949
656.9400   -445.2370
658.9900   -440.7912
661.0300   -421.2878
663.0700   -405.4454
665.1100   -390.5422
667.1500   -377.2187
669.1900   -369.1331
671.2400   -361.2079
673.2800   -346.0180
675.3200   -333.3074
677.3600   -314.1012
679.4000   -305.9188
681.4500   -283.5198
683.4900   -268.9101
685.5300   -257.1807
687.5700   -264.0580
689.6100   -265.7242
691.6600   -255.1585
693.7000   -250.3070
695.7400   -248.9262
697.7800   -267.0710
699.8200   -260.0193
701.8700   -205.7560
703.9100   -164.4863
705.9500   -134.2243
707.9900   -111.7144
710.0300   -76.4614
712.0700   -57.2862
714.1200   -63.2951
716.1600   -75.6898
718.2000   -90.7973
720.2400   -122.5281
722.2800   -131.7547
724.3300   -128.8062
726.3700   -137.9835
728.4100   -153.1725
730.4500   -162.7891
732.4900   -145.5546
734.5400   -146.7213
736.5800   -153.3000
738.6200   -150.3547
740.6600   -139.3596
742.7000   -132.1334
744.7500   -139.5002
746.7900   -157.0668
748.8300   -184.6544
750.8700   -196.5073
752.9100   -205.1801
754.9500   -214.0967
757.0000   -209.8644
759.0400   -215.8455
761.0800   -241.6514
763.1200   -230.3378
765.1600   -203.7979
767.2100   -199.9439
769.2500   -199.6010
771.2900   -203.5590
773.3300   -220.7030
775.3700   -243.5395
777.4200   -268.6534
779.4600   -277.9263
781.5000   -268.4974
783.5400   -272.0605
785.5800   -271.6834
787.6300   -264.0747
789.6700   -261.4579
791.7100   -269.4678
793.7500   -264.1596
795.7900   -259.3965
797.8300   -271.4589
799.8800   -305.7150
801.9200   -304.3425
803.9600   -282.0977
806.0000   -268.0410
808.0400   -264.3226
810.0900   -265.4115
812.1300   -256.0732
814.1700   -257.0077
816.2100   -250.7729
818.2500   -230.5501
820.3000   -221.2086
822.3400   -231.6913
824.3800   -232.4274
826.4200   -231.0942
828.4600   -227.0924
830.5100   -222.0765
832.5500   -232.1617
834.5900   -247.1374
836.6300   -253.2874
838.6700   -256.5837
840.7100   -276.1107
842.7600   -286.7863
844.8000   -271.1449
846.8400   -265.9066
848.8800   -269.6738
850.9200   -274.1485
852.9700   -296.9512
855.0100   -298.0399
857.0500   -279.6539
859.0900   -291.7718
861.1300   -289.2025
863.1800   -291.9684
865.2200   -312.8322
867.2600   -314.7531
869.3000   -288.9275
871.3400   -248.4598
873.3900   -220.8092
875.4300   -237.3775
877.4700   -262.6745
879.5100   -247.3069
881.5500   -243.7647
883.5900   -307.5079
885.6400   -358.4536
887.6800   -385.0001
889.7200   -387.5749
891.7600   -360.5486
893.8000   -321.3645
895.8500   -288.7069
897.8900   -247.1855
899.9300   -212.5320
901.9700   -230.2512
904.0100   -236.3966
906.0600   -207.0187
908.1000   -202.4028
910.1400   -229.2199
912.1800   -289.7510
914.2200   -355.8997
916.2700   -393.0884
918.3100   -393.0499
920.3500   -383.2139
922.3900   -372.1904
924.4300   -371.5952
926.4700   -353.4936
928.5200   -298.1139
930.5600   -308.3619
932.6000   -353.7601
934.6400   -370.0950
936.6800   -379.5206
938.7300   -380.8759
940.7700   -392.4174
942.8100   -393.3410
944.8500   -385.9036
946.8900   -369.2689
948.9400   -340.4625
950.9800   -313.4071
953.0200   -286.1879
955.0600   -314.9297
957.1000   -372.7459
959.1500   -395.9853
961.1900   -396.2126
963.2300   -414.9509
965.2700   -430.5850
967.3100   -379.0525
969.3500   -243.0322
971.4000   -126.9626
973.4400   -75.8946
975.4800   -83.8732
977.5200   -124.1132
979.5600   -218.1801
981.6100   -299.3619
983.6500   -320.3339
985.6900   -327.4411
987.7300   -371.8141
989.7700   -380.9161
991.8200   -346.6153
993.8600   -333.0623
995.9000   -359.8861
997.9400   -381.4443
999.9800   -361.5517
1002.0300   -352.3080
1004.0700   -400.8665
1006.1100   -447.2708
1008.1500   -485.5395
1010.1900   -498.9124
1012.2300   -495.9396
1014.2800   -473.9457
1016.3200   -429.8872
1018.3600   -392.4964
1020.4000   -361.3539
1022.4400   -345.6026
1024.4900   -301.7994
1026.5300   -260.4968
1028.5700   -297.9526
1030.6100   -316.9266
1032.6500   -318.6310
1034.7000   -352.7530
1036.7400   -393.3710
1038.7800   -366.3967
1040.8200   -327.1455
1042.8600   -323.7826
1044.9100   -317.5346
1046.9500   -308.5417
1048.9900   -278.6419
1051.0300   -272.6855
1053.0700   -329.0371
1055.1100   -360.2246
1057.1600   -420.1434
1059.2000   -467.3202
1061.2400   -485.7310
1063.2800   -493.4288
1065.3200   -492.0389
1067.3700   -463.3655
1069.4100   -429.6544
1071.4500   -402.2787
1073.4900   -334.5253
1075.5300   -294.4405
1077.5800   -324.0829
1079.6200   -324.0127
1081.6600   -314.8063
1083.7000   -343.7253
1085.7400   -368.6875
1087.7900   -340.7688
1089.8300   -310.4627
1091.8700   -319.7716
1093.9100   -338.4095
1095.9500   -316.9089
1097.9900   -249.9479
1100.0400   -242.4066
1102.0800   -284.3366
1104.1200   -315.0070
1106.1600   -339.9013
1108.2000   -381.4825
1110.2500   -403.1385
1112.2900   -381.2859
1114.3300   -344.3475
1116.3700   -329.9865
1118.4100   -341.7552
1120.4600   -331.1158
1122.5000   -297.7939
1124.5400   -322.2686
1126.5800   -381.3599
1128.6200   -437.3388
1130.6700   -484.5638
1132.7100   -512.4766
1134.7500   -484.2069
1136.7900   -415.5536
1138.8300   -379.2235
1140.8700   -358.5197
1142.9200   -352.8193
1144.9600   -330.4349
1147.0000   -277.2874
1149.0400   -305.8940
1151.0800   -349.2456
1153.1300   -367.7705
1155.1700   -382.0553
1157.2100   -390.3521
1159.2500   -385.0892
1161.2900   -334.2933
1163.3400   -330.7115
1165.3800   -337.7066
1167.4200   -347.2676
1169.4600   -314.6264
1171.5000   -268.3097
1173.5500   -284.7669
1175.5900   -289.3280
1177.6300   -299.8126
1179.6700   -314.5553
1181.7100   -350.6274
1183.7500   -370.5953
1185.8000   -346.1267
1187.8400   -329.3436
1189.8800   -308.8079
1191.9200   -283.1497
1193.9600   -247.5953
1196.0100   -232.8321
1198.0500   -266.9700
1200.0900   -286.1920
1202.1300   -306.6788
1204.1700   -332.1794
1206.2200   -386.4836
1208.2600   -394.9933
1210.3000   -369.5895
1212.3400   -355.0864
1214.3800   -347.9342
1216.4300   -329.5714
1218.4700   -283.9795
1220.5100   -271.7118
1222.5500   -314.4880
1224.5900   -341.9364
1226.6300   -372.1657
1228.6800   -404.8017
1230.7200   -407.0320
1232.7600   -373.8090
1234.8000   -345.9041
1236.8400   -343.9194
1238.8900   -349.6485
1240.9300   -343.3938
1242.9700   -297.0010
1245.0100   -259.9757
1247.0500   -276.5207
1249.1000   -298.3649
1251.1400   -338.5172
1253.1800   -366.2700
1255.2200   -366.2582
1257.2600   -344.7525
1259.3100   -312.5627
1261.3500   -313.7608
1263.3900   -314.5933
1265.4300   -296.0938
1267.4700   -276.9713
1269.5100   -280.8133
1271.5600   -323.5895
1273.6000   -354.4590
1275.6400   -365.5813
1277.6800   -391.7485
1279.7200   -404.9512
1281.7700   -376.3777
1283.8100   -338.6591
1285.8500   -336.3165
1287.8900   -335.3252
1289.9300   -305.7865
1291.9800   -256.4319
1294.0200   -257.6438
1296.0600   -318.1235
1298.1000   -358.7055
1300.1400   -381.4877
1302.1900   -399.2262
1304.2300   -403.3008
1306.2700   -377.4031
1308.3100   -353.7172
1310.3500   -342.3041
1312.3900   -348.9541
1314.4400   -341.9128
1316.4800   -297.0581
1318.5200   -290.1083
1320.5600   -318.7768
1322.6000   -324.3821
1324.6500   -341.9647
1326.6900   -393.5050
1328.7300   -419.7965
1330.7700   -386.1430
1332.8100   -351.3259
1334.8600   -329.6631
1336.9000   -301.8200
1338.9400   -270.5103
1340.9800   -213.2614
1343.0200   -186.2802
1345.0700   -226.6062
1347.1100   -272.8618
1349.1500   -313.1747
1351.1900   -377.2580
1353.2300   -394.4649
1355.2700   -337.2809
1357.3200   -260.0993
1359.3600   -192.5201
1361.4000   -176.0423
1363.4400   -165.9595
1365.4800   -147.9991
1367.5300   -127.8675
1369.5700   -112.0763
1371.6100   -114.9185
1373.6500   -155.9505
1375.6900   -221.7512
1377.7400   -267.8808
1379.7800   -279.2545
1381.8200   -235.3799
1383.8600   -199.7736
1385.9000   -218.0262
1387.9500   -242.9510
1389.9900   -229.7082
1392.0300   -214.5404
1394.0700   -214.3673
1396.1100   -235.3027
1398.1500   -295.9484
1400.2000   -353.2160
1402.2400   -339.0071
1404.2800   -277.5804
1406.3200   -226.0875
1408.3600   -187.4654
1410.4100   -176.2539
1412.4500   -194.7179
1414.4900   -213.3576
1416.5300   -226.2712
1418.5700   -201.0503
1420.6200   -153.3242
1422.6600   -151.9540
1424.7000   -238.5586
1426.7400   -354.0327
1428.7800   -367.0194
1430.8300   -345.1717
1432.8700   -330.3126
1434.9100   -327.9379
1436.9500   -338.7828
1438.9900   -342.8813
1441.0300   -351.6235
1443.0800   -391.3356
1445.1200   -416.4320
1447.1600   -423.7238
1449.2000   -412.2620
1451.2400   -412.8490
1453.2900   -419.0592
1455.3300   -427.3800
1457.3700   -421.6016
1459.4100   -386.7480
1461.4500   -377.0253
1463.5000   -398.1358
1465.5400   -401.0005
1467.5800   -415.1931
1469.6200   -420.1560
1471.6600   -377.1360
1473.7100   -344.9423
1475.7500   -299.1662
1477.7900   -257.5588
1479.8300   -235.4692
1481.8700   -230.3512
1483.9100   -267.4634
1485.9600   -278.4777
1488.0000   -265.7300
1490.0400   -227.8291
1492.0800   -200.3386
1494.1200   -192.0171
1496.1700   -176.7816
1498.2100   -156.0272
1500.2500   -158.2230
1502.2900   -165.3302
1504.3300   -153.9922
1506.3800   -135.3921
1508.4200   -150.7091
1510.4600   -199.6762
1512.5000   -240.7498
1514.5400   -264.1032
1516.5900   -247.9865
1518.6300   -204.4114
1520.6700   -189.7391
1522.7100   -151.5416
1524.7500   -98.2200
1526.7900   -68.4716
1528.8400   -77.0561
1530.8800   -87.6323
1532.9200   -131.9875
1534.9600   -213.9843
1537.0000   -279.2153
1539.0500   -295.9450
1541.0900   -289.3112
1543.1300   -301.5606
1545.1700   -324.2706
1547.2100   -327.8995
1549.2600   -307.8413
1551.3000   -303.4252
1553.3400   -285.7077
1555.3800   -255.6454
1557.4200   -276.4965
1559.4700   -302.4794
1561.5100   -336.5645
1563.5500   -434.4609
1565.5900   -511.5986
1567.6300   -518.0080
1569.6700   -518.0022
1571.7200   -545.8269
1573.7600   -569.2800
1575.8000   -580.3332
1577.8400   -581.5288
1579.8800   -540.0501
1581.9300   -502.3514
1583.9700   -494.3217
1586.0100   -500.3138
1588.0500   -550.9110
1590.0900   -598.5232
1592.1400   -533.0341
1594.1800   -458.7301
1596.2200   -485.7791
1598.2600   -509.5750
1600.3000   -498.5135
1602.3500   -496.7824
1604.3900   -526.8790
1606.4300   -598.5986
1608.4700   -637.8475
1610.5100   -660.6742
1612.5500   -687.8072
1614.6000   -694.8770
1616.6400   -658.8781
1618.6800   -595.4565
1620.7200   -528.3470
1622.7600   -503.3110
1624.8100   -427.4114
1626.8500   -358.4146
1628.8900   -371.6560
1630.9300   -411.1924
1632.9700   -431.4774
1635.0200   -420.7678
1637.0600   -426.5117
1639.1000   -450.8798
